* REW测量的测量数据V5.20.13
* 来源: 麦克风 (Realtek High Definition Audio, MICROPHONE (主音), L, volume: no control
* 格式: 512k 对数扫频正弦, 1 扫频 at 0.0 dBFS 没有时间参考
* 日期: 2024-10-11 18:11:01
* REW 设置:
* C计权补偿: 关
*  目标电平: 75.0 dB
* 注释: ; 
* 测量: KXXS AET07 Tips
* 平滑: 1/24 倍频程
* 频率步进: 1/48 倍频程
* 起始频率: 20.300 Hz
*
* 频率(Hz) SPL(dB) 相位(角度)
20.299999 73.616 -137.8056
20.600000 73.629 -138.2510
20.900000 73.652 -139.0415
21.200001 73.666 -139.7765
21.400000 73.671 -140.2306
21.799999 73.677 -141.0924
22.000000 73.680 -141.5132
22.400000 73.689 -142.3380
22.700001 73.696 -142.9500
23.000000 73.703 -143.5657
23.299999 73.709 -144.1894
23.600000 73.712 -144.8239
24.000000 73.711 -145.6826
24.299999 73.706 -146.3259
24.700001 73.696 -147.1727
25.000000 73.689 -147.8032
25.400000 73.684 -148.6492
25.799999 73.682 -149.5061
26.200001 73.684 -150.3647
26.500000 73.686 -150.9994
26.900000 73.690 -151.8197
27.200001 73.693 -152.4081
27.600000 73.698 -153.1521
28.000000 73.702 -153.8531
28.500000 73.707 -154.6864
29.000000 73.709 -155.4987
29.500000 73.706 -156.3021
30.000000 73.701 -157.0896
30.400000 73.698 -157.7055
30.700001 73.697 -158.1630
31.100000 73.696 -158.7742
31.500000 73.696 -159.3880
32.000000 73.693 -160.1434
32.500000 73.685 -160.8548
33.000000 73.676 -161.5071
33.500000 73.671 -162.1234
34.000000 73.667 -162.7463
34.500000 73.662 -163.3955
35.000000 73.651 -164.0541
35.500000 73.635 -164.6882
36.000000 73.617 -165.2800
36.500000 73.604 -165.8397
37.000000 73.595 -166.3974
37.500000 73.588 -166.9779
38.200001 73.575 -167.8272
38.700001 73.559 -168.4249
39.500000 73.530 -169.2947
40.000000 73.516 -169.7914
40.599998 73.502 -170.3750
41.200001 73.487 -170.9580
41.799999 73.468 -171.5268
42.500000 73.444 -172.1664
43.099998 73.424 -172.7115
43.700001 73.404 -173.2630
44.400002 73.379 -173.8977
45.000000 73.356 -174.4130
45.500000 73.338 -174.8224
46.200001 73.313 -175.3963
46.799999 73.290 -175.9121
47.500000 73.263 -176.5208
48.200001 73.244 -177.1239
48.700001 73.237 -177.5786
49.400002 73.224 -178.2552
50.000000 73.197 -178.7809
50.799999 73.147 -179.2697
51.500000 73.111 -179.5823
52.200001 73.079 -179.9459
53.000000 73.041 179.5479
53.799999 73.005 179.0076
54.500000 72.980 178.5200
55.200001 72.955 178.0338
56.000000 72.923 177.5114
57.000000 72.878 176.9020
58.000000 72.828 176.3122
59.000000 72.778 175.7686
60.000000 72.735 175.2551
60.799999 72.703 174.8092
61.500000 72.671 174.4041
62.200001 72.637 174.0233
63.000000 72.602 173.6192
64.000000 72.563 173.1066
65.000000 72.515 172.5993
66.000000 72.463 172.1312
67.000000 72.414 171.6655
68.000000 72.366 171.2070
69.000000 72.318 170.7861
70.000000 72.273 170.3933
71.000000 72.230 169.9976
72.000000 72.189 169.5951
73.000000 72.148 169.1989
74.000000 72.103 168.8186
75.000000 72.054 168.4677
76.199997 71.998 168.0369
77.500000 71.940 167.5437
78.800003 71.884 167.0743
80.000000 71.828 166.6786
81.199997 71.773 166.3303
82.500000 71.719 165.9589
83.800003 71.665 165.5707
85.000000 71.610 165.2014
86.199997 71.553 164.8512
87.500000 71.493 164.4772
88.500000 71.445 164.1898
90.000000 71.370 163.7888
91.199997 71.312 163.4972
92.500000 71.252 163.1884
93.800003 71.199 162.9121
95.000000 71.155 162.6567
96.199997 71.100 162.3867
97.500000 71.030 162.1442
98.800003 70.967 161.9032
100.000000 70.912 161.6524
101.500000 70.843 161.3528
103.000000 70.774 161.0781
104.400002 70.709 160.8318
106.000000 70.640 160.5991
107.500000 70.582 160.3935
109.000000 70.523 160.1650
110.599998 70.461 159.8871
112.000000 70.409 159.6852
113.800003 70.337 159.4887
115.000000 70.284 159.3486
117.199997 70.165 159.1918
118.000000 70.101 159.1888
120.599998 69.940 159.1022
122.000000 69.934 158.8087
124.099998 69.899 158.5034
125.000000 69.868 158.4215
126.500000 69.808 158.2942
128.000000 69.748 158.1936
131.500000 69.617 157.9280
132.000000 69.600 157.8965
134.000000 69.524 157.7964
136.000000 69.443 157.7538
138.000000 69.364 157.7409
140.000000 69.284 157.6877
143.000000 69.158 157.6637
145.000000 69.088 157.6372
147.500000 68.999 157.5615
150.000000 68.902 157.4839
152.500000 68.835 157.5256
155.000000 68.767 157.5824
157.500000 68.681 157.5999
160.000000 68.595 157.6709
162.500000 68.515 157.7437
165.000000 68.423 157.8071
167.500000 68.332 157.8773
170.000000 68.279 157.9747
172.500000 68.224 158.1037
175.000000 68.156 158.1864
177.500000 68.086 158.3324
180.000000 68.028 158.5301
182.500000 67.992 158.6322
185.000000 67.958 158.6710
187.500000 67.911 158.6338
190.000000 67.863 158.5658
192.500000 67.812 158.6999
195.000000 67.756 158.8767
197.500000 67.704 158.9579
200.000000 67.652 158.9922
203.000000 67.584 159.0852
206.000000 67.514 159.1866
209.000000 67.449 159.2538
212.000000 67.391 159.3200
214.000000 67.353 159.3766
218.000000 67.265 159.6541
220.000000 67.218 159.8103
224.000000 67.123 160.0345
227.000000 67.064 160.2008
230.000000 67.017 160.3562
233.000000 66.968 160.5295
236.000000 66.913 160.7462
240.000000 66.844 160.9854
243.000000 66.796 161.0942
247.000000 66.732 161.2269
250.000000 66.684 161.3713
254.000000 66.616 161.7176
258.000000 66.557 162.0294
262.000000 66.505 162.2227
265.000000 66.458 162.3647
269.000000 66.393 162.6398
272.000000 66.347 162.8734
276.000000 66.290 163.1722
280.000000 66.237 163.4574
285.000000 66.165 163.8436
290.000000 66.097 164.2068
295.000000 66.036 164.5500
300.000000 65.978 164.9183
304.000000 65.938 165.2255
307.000000 65.909 165.4515
311.000000 65.872 165.7662
315.000000 65.831 166.1097
320.000000 65.775 166.5305
325.000000 65.727 166.9433
330.000000 65.687 167.3357
335.000000 65.643 167.7422
340.000000 65.597 168.1954
345.000000 65.561 168.6035
350.000000 65.529 168.9437
355.000000 65.510 169.2731
360.000000 65.490 169.6085
365.000000 65.462 169.9442
370.000000 65.427 170.2935
375.000000 65.392 170.6462
382.000000 65.352 171.1253
387.000000 65.327 171.4481
395.000000 65.288 171.9330
400.000000 65.264 172.2158
406.000000 65.236 172.5936
412.000000 65.204 173.0126
418.000000 65.178 173.3998
425.000000 65.146 173.8223
431.000000 65.115 174.1985
437.000000 65.087 174.5773
444.000000 65.060 174.9997
450.000000 65.034 175.3617
455.000000 65.008 175.6893
462.000000 64.974 176.1740
468.000000 64.953 176.5704
475.000000 64.932 177.0177
482.000000 64.905 177.4725
487.000000 64.886 177.7939
494.000000 64.866 178.2352
500.000000 64.851 178.6246
508.000000 64.828 179.1481
515.000000 64.808 179.5928
522.000000 64.786 -179.9599
530.000000 64.764 -179.4486
538.000000 64.748 -178.9341
545.000000 64.735 -178.4777
552.000000 64.721 -178.0226
560.000000 64.706 -177.5063
570.000000 64.687 -176.8580
580.000000 64.670 -176.1653
590.000000 64.657 -175.4833
600.000000 64.644 -174.8280
608.000000 64.637 -174.3102
615.000000 64.636 -173.8655
622.000000 64.636 -173.4095
630.000000 64.635 -172.8796
640.000000 64.633 -172.2106
650.000000 64.630 -171.5439
660.000000 64.632 -170.9200
670.000000 64.640 -170.2761
680.000000 64.652 -169.5869
690.000000 64.665 -168.9040
700.000000 64.680 -168.2551
710.000000 64.696 -167.6210
720.000000 64.714 -166.9810
730.000000 64.735 -166.3547
740.000000 64.752 -165.7324
750.000000 64.770 -165.0781
762.000000 64.801 -164.2618
775.000000 64.839 -163.4015
788.000000 64.876 -162.5953
800.000000 64.917 -161.8430
812.000000 64.966 -161.0871
825.000000 65.021 -160.2704
838.000000 65.076 -159.4630
850.000000 65.124 -158.7284
862.000000 65.181 -157.9977
875.000000 65.252 -157.2195
885.000000 65.307 -156.6377
900.000000 65.391 -155.7959
912.000000 65.465 -155.1615
925.000000 65.553 -154.4886
938.000000 65.648 -153.8319
950.000000 65.740 -153.2773
962.000000 65.831 -152.7823
975.000000 65.922 -152.2723
988.000000 66.014 -151.7223
1000.000000 66.107 -151.2083
1015.000000 66.236 -150.6304
1030.000000 66.371 -150.1785
1044.000000 66.495 -149.8531
1060.000000 66.628 -149.5613
1075.000000 66.744 -149.3661
1090.000000 66.847 -149.2074
1106.000000 66.939 -148.9590
1120.000000 67.023 -148.6167
1138.000000 67.160 -148.1317
1150.000000 67.261 -147.8912
1172.000000 67.440 -147.6262
1180.000000 67.501 -147.5589
1206.000000 67.690 -147.4169
1220.000000 67.788 -147.3536
1241.000000 67.930 -147.2443
1250.000000 67.989 -147.1979
1265.000000 68.085 -147.1244
1280.000000 68.182 -147.0514
1315.000000 68.407 -146.9084
1320.000000 68.438 -146.8922
1340.000000 68.560 -146.8298
1360.000000 68.678 -146.7696
1380.000000 68.794 -146.7137
1400.000000 68.908 -146.6757
1430.000000 69.074 -146.6309
1450.000000 69.181 -146.6034
1475.000000 69.315 -146.5774
1500.000000 69.447 -146.5578
1525.000000 69.573 -146.5454
1550.000000 69.697 -146.5475
1575.000000 69.821 -146.5602
1600.000000 69.941 -146.5834
1625.000000 70.055 -146.6005
1650.000000 70.170 -146.6330
1675.000000 70.286 -146.7090
1700.000000 70.401 -146.7939
1725.000000 70.514 -146.8884
1750.000000 70.630 -147.0020
1775.000000 70.744 -147.1362
1800.000000 70.860 -147.2893
1825.000000 70.978 -147.4583
1850.000000 71.096 -147.6524
1875.000000 71.215 -147.8811
1900.000000 71.336 -148.1269
1925.000000 71.458 -148.3911
1950.000000 71.578 -148.6845
1975.000000 71.700 -149.0056
2000.000000 71.822 -149.3530
2030.000000 71.967 -149.8064
2060.000000 72.113 -150.3074
2090.000000 72.258 -150.8482
2120.000000 72.399 -151.4231
2140.000000 72.491 -151.8345
2180.000000 72.670 -152.7192
2200.000000 72.756 -153.1814
2240.000000 72.922 -154.1478
2270.000000 73.040 -154.9256
2300.000000 73.152 -155.7422
2330.000000 73.258 -156.5853
2360.000000 73.357 -157.4603
2400.000000 73.480 -158.6809
2430.000000 73.561 -159.6199
2470.000000 73.656 -160.8981
2500.000000 73.718 -161.8848
2540.000000 73.789 -163.2204
2580.000000 73.844 -164.5625
2620.000000 73.885 -165.8977
2650.000000 73.907 -166.9031
2690.000000 73.923 -168.2433
2720.000000 73.925 -169.2339
2760.000000 73.918 -170.5236
2800.000000 73.899 -171.7792
2850.000000 73.857 -173.3206
2900.000000 73.802 -174.7823
2950.000000 73.736 -176.1471
3000.000000 73.658 -177.4467
3040.000000 73.589 -178.4328
3070.000000 73.533 -179.1425
3110.000000 73.456 179.9622
3150.000000 73.376 179.1328
3200.000000 73.272 178.1598
3250.000000 73.167 177.2637
3300.000000 73.060 176.4393
3350.000000 72.953 175.6958
3400.000000 72.846 175.0249
3450.000000 72.741 174.4071
3500.000000 72.638 173.8412
3550.000000 72.539 173.3283
3600.000000 72.444 172.8747
3650.000000 72.354 172.4602
3700.000000 72.266 172.0772
3750.000000 72.178 171.7366
3820.000000 72.062 171.2914
3870.000000 71.984 171.0059
3950.000000 71.872 170.5909
4000.000000 71.809 170.3248
4060.000000 71.736 169.9940
4120.000000 71.666 169.6272
4180.000000 71.598 169.2192
4250.000000 71.517 168.7101
4310.000000 71.444 168.2582
4370.000000 71.367 167.7859
4440.000000 71.273 167.2051
4500.000000 71.189 166.6909
4550.000000 71.115 166.2603
4620.000000 71.005 165.6427
4680.000000 70.906 165.0989
4750.000000 70.785 164.4542
4820.000000 70.653 163.8014
4870.000000 70.551 163.3394
4940.000000 70.399 162.6912
5000.000000 70.261 162.1447
5080.000000 70.064 161.4435
5150.000000 69.878 160.8639
5220.000000 69.681 160.3264
5300.000000 69.441 159.7775
5380.000000 69.182 159.3269
5450.000000 68.940 159.0181
5520.000000 68.682 158.8202
5600.000000 68.367 158.8157
5700.000000 67.960 159.3790
5800.000000 67.633 160.5259
5900.000000 67.424 161.3013
6000.000000 67.176 161.5197
6080.000000 66.918 161.8598
6150.000000 66.679 162.4010
6220.000000 66.448 163.1231
6300.000000 66.202 164.1229
6400.000000 65.922 165.5728
6500.000000 65.671 167.1678
6600.000000 65.450 168.8787
6700.000000 65.254 170.7187
6800.000000 65.091 172.6849
6900.000000 64.958 174.7428
7000.000000 64.859 176.8672
7100.000000 64.798 179.0587
7200.000000 64.777 -178.6831
7300.000000 64.800 -176.4134
7400.000000 64.864 -174.1820
7500.000000 64.975 -172.0046
7620.000000 65.179 -169.4782
7750.000000 65.481 -166.9436
7880.000000 65.867 -164.7150
8000.000000 66.313 -163.0333
8120.000000 66.855 -161.8814
8250.000000 67.550 -161.4343
8380.000000 68.340 -162.1359
8500.000000 69.130 -164.2073
8620.000000 69.921 -168.0781
8750.000000 70.656 -174.6758
8850.000000 71.028 178.5685
9000.000000 71.089 166.6156
9120.000000 70.640 156.9568
9250.000000 69.712 148.0705
9380.000000 68.474 141.7053
9500.000000 67.200 138.0897
9620.000000 65.903 136.3258
9750.000000 64.537 136.0847
9880.000000 63.248 137.2010
10000.000000 62.138 139.2276
10150.000000 60.863 142.9411
10300.000000 59.711 147.8674
10440.000000 58.769 153.5733
10600.000000 57.908 161.4114
10750.000000 57.408 169.7694
10900.000000 57.321 178.3589
11060.000000 57.705 -173.7152
11200.000000 58.289 -169.0041
11380.000000 59.027 -166.4940
11500.000000 59.357 -166.4814
11720.000000 59.538 -167.5352
11800.000000 59.493 -167.7777
12060.000000 59.155 -167.0177
12200.000000 58.941 -165.6134
12410.000000 58.680 -162.5414
12500.000000 58.603 -160.9617
12650.000000 58.529 -158.0812
12800.000000 58.528 -154.9812
13150.000000 58.835 -147.3344
13200.000000 58.917 -146.2175
13400.000000 59.343 -141.7508
13600.000000 59.945 -137.4155
13800.000000 60.743 -133.4169
14000.000000 61.762 -129.9260
14300.000000 63.752 -126.6545
14500.000000 65.367 -127.4704
14750.000000 67.353 -134.7984
15000.000000 68.501 -149.8327
15250.000000 68.159 -166.5013
15500.000000 66.502 -177.0329
15750.000000 64.294 -179.3698
16000.000000 62.191 -175.1786
16250.000000 60.436 -166.2597
16500.000000 59.067 -155.0922
16750.000000 58.054 -143.3353
17000.000000 57.329 -131.6994
17250.000000 56.824 -120.7041
17500.000000 56.489 -110.8910
17750.000000 56.256 -102.9595
18000.000000 56.009 -98.1541
18250.000000 55.599 -97.1212
18500.000000 54.911 -98.3787
18750.000000 53.898 -100.1498
19000.000000 52.599 -101.8249
19250.000000 51.122 -103.2901
19500.000000 49.593 -103.8049
19750.000000 48.124 -103.0419
20000.000000 46.796 -101.3731
