* REW测量的测量数据V5.20.13
* 来源: 麦克风 (Realtek High Definition Audio, MICROPHONE (主音), L, volume: no control
* 格式: 512k 对数扫频正弦, 1 扫频 at 0.0 dBFS 没有时间参考
* 日期: 2024-10-13 0:08:13
* REW 设置:
* C计权补偿: 关
*  目标电平: 75.0 dB
* 注释: ; 
* 测量: Moondrop Quarks R
* 平滑: 1/24 倍频程
* 频率步进: 1/48 倍频程
* 起始频率: 20.300 Hz
*
* 频率(Hz) SPL(dB) 相位(角度)
20.299999 31.689 176.6144
20.600000 31.688 176.5331
20.900000 31.684 176.4000
21.200001 31.674 176.3071
21.400000 31.664 176.2668
21.799999 31.638 176.2097
22.000000 31.623 176.1775
22.400000 31.592 176.0782
22.700001 31.566 175.9634
23.000000 31.539 175.8183
23.299999 31.512 175.6546
23.600000 31.483 175.4803
24.000000 31.443 175.2429
24.299999 31.413 175.0678
24.700001 31.374 174.8382
25.000000 31.349 174.6611
25.400000 31.320 174.4075
25.799999 31.299 174.1328
26.200001 31.282 173.8431
26.500000 31.272 173.6209
26.900000 31.259 173.3268
27.200001 31.249 173.1175
27.600000 31.234 172.8674
28.000000 31.218 172.6610
28.500000 31.198 172.4521
29.000000 31.178 172.2483
29.500000 31.157 172.0082
30.000000 31.135 171.7325
30.400000 31.117 171.5049
30.700001 31.104 171.3383
31.100000 31.088 171.1263
31.500000 31.071 170.9271
32.000000 31.049 170.6977
32.500000 31.028 170.4909
33.000000 31.007 170.3011
33.500000 30.988 170.1140
34.000000 30.968 169.9136
34.500000 30.949 169.6916
35.000000 30.928 169.4506
35.500000 30.906 169.2043
36.000000 30.883 168.9721
36.500000 30.861 168.7657
37.000000 30.841 168.5780
37.500000 30.824 168.3906
38.200001 30.800 168.1107
38.700001 30.780 167.9099
39.500000 30.748 167.6196
40.000000 30.730 167.4511
40.599998 30.711 167.2407
41.200001 30.693 167.0100
41.799999 30.672 166.7666
42.500000 30.643 166.4874
43.099998 30.616 166.2633
43.700001 30.592 166.0519
44.400002 30.568 165.8145
45.000000 30.549 165.6174
45.500000 30.534 165.4561
46.200001 30.514 165.2233
46.799999 30.495 165.0031
47.500000 30.470 164.7187
48.200001 30.441 164.4335
48.700001 30.419 164.2526
49.400002 30.390 164.0427
50.000000 30.366 163.8837
50.799999 30.334 163.6655
51.500000 30.303 163.4696
52.200001 30.272 163.2765
53.000000 30.242 163.0363
53.799999 30.215 162.7713
54.500000 30.192 162.5518
55.200001 30.168 162.3533
56.000000 30.138 162.1332
57.000000 30.101 161.8555
58.000000 30.065 161.5511
59.000000 30.029 161.2131
60.000000 29.993 160.9163
60.799999 29.966 160.7313
61.500000 29.944 160.5826
62.200001 29.921 160.4276
63.000000 29.891 160.2471
64.000000 29.851 160.0164
65.000000 29.814 159.7587
66.000000 29.775 159.5189
67.000000 29.738 159.3099
68.000000 29.700 159.0821
69.000000 29.661 158.8568
70.000000 29.629 158.6352
71.000000 29.599 158.3897
72.000000 29.563 158.1681
73.000000 29.527 157.9743
74.000000 29.493 157.7535
75.000000 29.461 157.5171
76.199997 29.424 157.2463
77.500000 29.379 156.9765
78.800003 29.332 156.7180
80.000000 29.291 156.4747
81.199997 29.252 156.2309
82.500000 29.211 155.9732
83.800003 29.170 155.7301
85.000000 29.127 155.5312
86.199997 29.088 155.3666
87.500000 29.052 155.1450
88.500000 29.022 154.9418
90.000000 28.971 154.6361
91.199997 28.928 154.3901
92.500000 28.881 154.1473
93.800003 28.836 153.9427
95.000000 28.792 153.7575
96.199997 28.746 153.5754
97.500000 28.700 153.3919
98.800003 28.659 153.2062
100.000000 28.621 153.0339
101.500000 28.572 152.8337
103.000000 28.519 152.6380
104.400002 28.468 152.4359
106.000000 28.414 152.1901
107.500000 28.368 152.0012
109.000000 28.321 151.8409
110.599998 28.268 151.6394
112.000000 28.222 151.4467
113.800003 28.166 151.2189
115.000000 28.130 151.0956
117.199997 28.059 150.8310
118.000000 28.032 150.6961
120.599998 27.947 150.3411
122.000000 27.905 150.3090
124.099998 27.839 150.2163
125.000000 27.809 150.1441
126.500000 27.760 150.0082
128.000000 27.712 149.8771
131.500000 27.597 149.6338
132.000000 27.581 149.6074
134.000000 27.520 149.5105
136.000000 27.455 149.4137
138.000000 27.392 149.2924
140.000000 27.333 149.1602
143.000000 27.240 149.0122
145.000000 27.181 148.9416
147.500000 27.113 148.8485
150.000000 27.043 148.6982
152.500000 26.972 148.6006
155.000000 26.902 148.5276
157.500000 26.835 148.4231
160.000000 26.774 148.3418
162.500000 26.711 148.2803
165.000000 26.648 148.2054
167.500000 26.584 148.1432
170.000000 26.516 148.0622
172.500000 26.448 147.9644
175.000000 26.381 147.8977
177.500000 26.316 147.8463
180.000000 26.253 147.7751
182.500000 26.195 147.7232
185.000000 26.139 147.6776
187.500000 26.077 147.6078
190.000000 26.016 147.5507
192.500000 25.957 147.5073
195.000000 25.897 147.4597
197.500000 25.837 147.4240
200.000000 25.779 147.4208
203.000000 25.712 147.4317
206.000000 25.644 147.3965
209.000000 25.568 147.3762
212.000000 25.491 147.4080
214.000000 25.443 147.4355
218.000000 25.358 147.4537
220.000000 25.310 147.4567
224.000000 25.213 147.4834
227.000000 25.140 147.5239
230.000000 25.065 147.5840
233.000000 24.992 147.6572
236.000000 24.924 147.7804
240.000000 24.835 148.0191
243.000000 24.764 148.1960
247.000000 24.671 148.4770
250.000000 24.607 148.7757
254.000000 24.537 149.2580
258.000000 24.493 149.6748
262.000000 24.522 149.8393
265.000000 24.570 150.0468
269.000000 24.568 150.5461
272.000000 24.561 150.6249
276.000000 24.558 150.2911
280.000000 24.530 149.8698
285.000000 24.441 149.4829
290.000000 24.314 149.2719
295.000000 24.160 149.2231
300.000000 24.013 149.3076
304.000000 23.932 149.4526
307.000000 23.869 149.6442
311.000000 23.779 149.9939
315.000000 23.689 150.4473
320.000000 23.596 151.1938
325.000000 23.536 151.9883
330.000000 23.512 152.8377
335.000000 23.530 153.7398
340.000000 23.584 154.4341
345.000000 23.670 154.8986
350.000000 23.773 155.0684
355.000000 23.864 154.8531
360.000000 23.927 154.3842
365.000000 23.948 153.8079
370.000000 23.919 153.2252
375.000000 23.866 152.7124
382.000000 23.771 152.1953
387.000000 23.692 151.9498
395.000000 23.568 151.7206
400.000000 23.490 151.6423
406.000000 23.395 151.5910
412.000000 23.302 151.6165
418.000000 23.212 151.7088
425.000000 23.115 151.8475
431.000000 23.037 151.9692
437.000000 22.964 152.1185
444.000000 22.878 152.3602
450.000000 22.807 152.5838
455.000000 22.750 152.7712
462.000000 22.671 153.0332
468.000000 22.608 153.2477
475.000000 22.538 153.4906
482.000000 22.472 153.7776
487.000000 22.425 154.0052
494.000000 22.362 154.3169
500.000000 22.311 154.5804
508.000000 22.246 154.9398
515.000000 22.192 155.2648
522.000000 22.137 155.5828
530.000000 22.074 155.9379
538.000000 22.014 156.3319
545.000000 21.966 156.6872
552.000000 21.919 157.0271
560.000000 21.865 157.4152
570.000000 21.804 157.9418
580.000000 21.746 158.4468
590.000000 21.691 158.9617
600.000000 21.638 159.4877
608.000000 21.596 159.8951
615.000000 21.561 160.2460
622.000000 21.531 160.5948
630.000000 21.499 161.0177
640.000000 21.458 161.6012
650.000000 21.419 162.1723
660.000000 21.387 162.7300
670.000000 21.356 163.3024
680.000000 21.327 163.8705
690.000000 21.303 164.4073
700.000000 21.284 164.9686
710.000000 21.266 165.5420
720.000000 21.251 166.0934
730.000000 21.240 166.6480
740.000000 21.228 167.1899
750.000000 21.219 167.7536
762.000000 21.213 168.4523
775.000000 21.208 169.1887
788.000000 21.206 169.9073
800.000000 21.210 170.5826
812.000000 21.220 171.2472
825.000000 21.234 171.9294
838.000000 21.256 172.6462
850.000000 21.279 173.3017
862.000000 21.303 173.9083
875.000000 21.332 174.5421
885.000000 21.355 175.0238
900.000000 21.393 175.7309
912.000000 21.432 176.3013
925.000000 21.478 176.8965
938.000000 21.524 177.4543
950.000000 21.567 177.9602
962.000000 21.614 178.4682
975.000000 21.669 179.0054
988.000000 21.728 179.4927
1000.000000 21.780 179.8945
1015.000000 21.844 180.3600
1030.000000 21.915 180.8484
1044.000000 21.984 181.3008
1060.000000 22.064 181.7701
1075.000000 22.141 182.1715
1090.000000 22.221 182.5454
1106.000000 22.307 182.9129
1120.000000 22.379 183.2034
1138.000000 22.472 183.5571
1150.000000 22.538 183.7960
1172.000000 22.657 184.2074
1180.000000 22.698 184.3343
1206.000000 22.833 184.7228
1220.000000 22.908 184.9292
1241.000000 23.020 185.2197
1250.000000 23.068 185.3342
1265.000000 23.145 185.5077
1280.000000 23.223 185.6703
1315.000000 23.403 186.0867
1320.000000 23.428 186.1412
1340.000000 23.528 186.3219
1360.000000 23.628 186.4943
1380.000000 23.729 186.6928
1400.000000 23.826 186.8826
1430.000000 23.961 187.1536
1450.000000 24.054 187.3212
1475.000000 24.175 187.5249
1500.000000 24.289 187.7444
1525.000000 24.398 187.9312
1550.000000 24.509 188.1002
1575.000000 24.622 188.2805
1600.000000 24.733 188.4591
1625.000000 24.838 188.6383
1650.000000 24.943 188.7941
1675.000000 25.051 188.9409
1700.000000 25.160 189.0840
1725.000000 25.268 189.2265
1750.000000 25.376 189.3846
1775.000000 25.490 189.5545
1800.000000 25.609 189.7094
1825.000000 25.736 189.8608
1850.000000 25.867 189.9933
1875.000000 26.003 190.0873
1900.000000 26.143 190.1517
1925.000000 26.289 190.2040
1950.000000 26.442 190.2262
1975.000000 26.596 190.2129
2000.000000 26.753 190.1757
2030.000000 26.953 190.1024
2060.000000 27.157 189.9628
2090.000000 27.363 189.7663
2120.000000 27.572 189.5287
2140.000000 27.714 189.3350
2180.000000 28.002 188.8534
2200.000000 28.149 188.5701
2240.000000 28.443 187.9155
2270.000000 28.665 187.3412
2300.000000 28.888 186.6833
2330.000000 29.109 185.9380
2360.000000 29.329 185.1085
2400.000000 29.620 183.8695
2430.000000 29.835 182.8355
2470.000000 30.114 181.3131
2500.000000 30.315 180.0499
2540.000000 30.572 178.2051
2580.000000 30.810 176.2177
2620.000000 31.026 174.0808
2650.000000 31.172 172.3683
2690.000000 31.344 169.9659
2720.000000 31.454 168.0971
2760.000000 31.575 165.5287
2800.000000 31.662 162.8830
2850.000000 31.720 159.5093
2900.000000 31.726 156.1441
2950.000000 31.686 152.8488
3000.000000 31.599 149.6357
3040.000000 31.500 147.1350
3070.000000 31.409 145.3175
3110.000000 31.266 142.9835
3150.000000 31.102 140.7589
3200.000000 30.866 138.1292
3250.000000 30.604 135.6674
3300.000000 30.312 133.4163
3350.000000 29.991 131.4146
3400.000000 29.645 129.7047
3450.000000 29.284 128.3104
3500.000000 28.920 127.2471
3550.000000 28.559 126.5214
3600.000000 28.212 126.1081
3650.000000 27.886 125.9465
3700.000000 27.586 125.9964
3750.000000 27.315 126.2241
3820.000000 26.987 126.7236
3870.000000 26.794 127.1285
3950.000000 26.543 127.6731
4000.000000 26.404 127.8941
4060.000000 26.241 128.0520
4120.000000 26.075 128.1346
4180.000000 25.899 128.2056
4250.000000 25.681 128.3403
4310.000000 25.483 128.5454
4370.000000 25.280 128.8858
4440.000000 25.050 129.4875
4500.000000 24.865 130.1575
4550.000000 24.724 130.7980
4620.000000 24.553 131.7735
4680.000000 24.430 132.6338
4750.000000 24.305 133.6226
4820.000000 24.196 134.5944
4870.000000 24.130 135.2829
4940.000000 24.046 136.2243
5000.000000 23.983 137.0116
5080.000000 23.912 138.0478
5150.000000 23.862 138.9491
5220.000000 23.823 139.8257
5300.000000 23.786 140.8036
5380.000000 23.756 141.7724
5450.000000 23.740 142.6052
5520.000000 23.735 143.4190
5600.000000 23.743 144.3284
5700.000000 23.772 145.4164
5800.000000 23.824 146.3872
5900.000000 23.891 147.1793
6000.000000 23.968 147.8181
6080.000000 24.028 148.2791
6150.000000 24.079 148.6396
6220.000000 24.133 148.9817
6300.000000 24.201 149.3738
6400.000000 24.303 149.8436
6500.000000 24.432 150.2094
6600.000000 24.585 150.3686
6700.000000 24.753 150.2768
6800.000000 24.923 149.9300
6900.000000 25.084 149.2989
7000.000000 25.222 148.3965
7100.000000 25.333 147.2937
7200.000000 25.414 146.0851
7300.000000 25.460 144.7935
7400.000000 25.471 143.4553
7500.000000 25.455 142.1404
7620.000000 25.408 140.6680
7750.000000 25.331 139.2190
7880.000000 25.233 137.9215
8000.000000 25.142 136.8292
8120.000000 25.078 135.7430
8250.000000 25.038 134.4733
8380.000000 25.022 132.8890
8500.000000 25.007 130.8857
8620.000000 24.949 128.2494
8750.000000 24.779 124.8507
8850.000000 24.547 122.0958
9000.000000 24.025 118.1788
9120.000000 23.482 115.5427
9250.000000 22.808 113.4033
9380.000000 22.084 112.0539
9500.000000 21.399 111.4517
9620.000000 20.717 111.3972
9750.000000 19.994 111.8980
9880.000000 19.299 112.9128
10000.000000 18.694 114.2202
10150.000000 17.998 116.2084
10300.000000 17.367 118.4284
10440.000000 16.826 120.6332
10600.000000 16.245 123.2707
10750.000000 15.732 125.8616
10900.000000 15.247 128.5946
11060.000000 14.764 131.6483
11200.000000 14.375 134.4076
11380.000000 13.922 138.0856
11500.000000 13.646 140.5971
11720.000000 13.198 145.3021
11800.000000 13.055 147.0210
12060.000000 12.660 152.6186
12200.000000 12.484 155.6624
12410.000000 12.274 160.2202
12500.000000 12.203 162.1601
12650.000000 12.107 165.3437
12800.000000 12.041 168.4809
13150.000000 12.003 175.7292
13200.000000 12.010 176.7516
13400.000000 12.063 180.7622
13600.000000 12.162 184.6194
13800.000000 12.310 188.2879
14000.000000 12.488 191.8533
14300.000000 12.782 197.1920
14500.000000 12.987 200.3929
14750.000000 13.229 203.7401
15000.000000 13.406 206.9374
15250.000000 13.452 210.9446
15500.000000 13.341 215.2247
15750.000000 13.079 219.6325
16000.000000 12.663 225.1947
16250.000000 12.096 233.1022
16500.000000 11.448 242.7586
16750.000000 10.789 253.3616
17000.000000 10.156 264.7165
17250.000000 9.573 276.6815
17500.000000 9.087 289.0090
17750.000000 8.733 301.1723
18000.000000 8.534 311.9257
18250.000000 8.493 320.0738
18500.000000 8.590 325.9182
18750.000000 8.798 329.9838
19000.000000 9.191 331.2043
19250.000000 9.615 327.1049
19500.000000 9.674 317.9814
19750.000000 9.087 306.6465
20000.000000 7.812 296.5700
