* REW测量的测量数据V5.20.13
* 来源: 麦克风 (Realtek High Definition Audio, MICROPHONE (主音), L, volume: no control
* 格式: 512k 对数扫频正弦, 1 扫频 at 0.0 dBFS 没有时间参考
* 日期: 2024-10-11 18:12:20
* REW 设置:
* C计权补偿: 关
*  目标电平: 75.0 dB
* 注释: ; 
* 测量: KXXS Normal Tips
* 平滑: 1/24 倍频程
* 频率步进: 1/48 倍频程
* 起始频率: 20.300 Hz
*
* 频率(Hz) SPL(dB) 相位(角度)
20.299999 73.579 -138.1404
20.600000 73.593 -138.5633
20.900000 73.617 -139.3090
21.200001 73.633 -139.9922
21.400000 73.640 -140.4140
21.799999 73.649 -141.2275
22.000000 73.653 -141.6360
22.400000 73.660 -142.4604
22.700001 73.662 -143.0846
23.000000 73.663 -143.7127
23.299999 73.662 -144.3423
23.600000 73.661 -144.9758
24.000000 73.657 -145.8301
24.299999 73.655 -146.4780
24.700001 73.652 -147.3517
25.000000 73.652 -148.0175
25.400000 73.652 -148.9189
25.799999 73.652 -149.8188
26.200001 73.652 -150.6908
26.500000 73.653 -151.3143
26.900000 73.656 -152.0994
27.200001 73.660 -152.6555
27.600000 73.666 -153.3605
28.000000 73.674 -154.0338
28.500000 73.681 -154.8480
29.000000 73.686 -155.6561
29.500000 73.686 -156.4730
30.000000 73.681 -157.2945
30.400000 73.674 -157.9436
30.700001 73.667 -158.4200
31.100000 73.659 -159.0363
31.500000 73.651 -159.6297
32.000000 73.643 -160.3442
32.500000 73.636 -161.0393
33.000000 73.629 -161.7222
33.500000 73.618 -162.3891
34.000000 73.605 -163.0302
34.500000 73.592 -163.6432
35.000000 73.580 -164.2404
35.500000 73.569 -164.8398
36.000000 73.558 -165.4470
36.500000 73.545 -166.0523
37.000000 73.531 -166.6461
37.500000 73.519 -167.2307
38.200001 73.502 -168.0479
38.700001 73.488 -168.6234
39.500000 73.465 -169.4825
40.000000 73.452 -169.9785
40.599998 73.441 -170.5612
41.200001 73.430 -171.1507
41.799999 73.416 -171.7381
42.500000 73.394 -172.4052
43.099998 73.370 -172.9580
43.700001 73.344 -173.4865
44.400002 73.315 -174.0871
45.000000 73.295 -174.6285
45.500000 73.278 -175.1014
46.200001 73.255 -175.7323
46.799999 73.239 -176.2043
47.500000 73.222 -176.7161
48.200001 73.188 -177.1935
48.700001 73.153 -177.4731
49.400002 73.105 -177.8030
50.000000 73.077 -178.1628
50.799999 73.047 -178.8678
51.500000 73.018 -179.5659
52.200001 72.992 179.8001
53.000000 72.969 179.1730
53.799999 72.942 178.6367
54.500000 72.914 178.2188
55.200001 72.885 177.7947
56.000000 72.848 177.2792
57.000000 72.797 176.6475
58.000000 72.746 176.0721
59.000000 72.696 175.5414
60.000000 72.649 175.0313
60.799999 72.615 174.6192
61.500000 72.586 174.2496
62.200001 72.557 173.8724
63.000000 72.520 173.4384
64.000000 72.472 172.9105
65.000000 72.423 172.4182
66.000000 72.377 171.9609
67.000000 72.335 171.5109
68.000000 72.294 171.0427
69.000000 72.250 170.5904
70.000000 72.203 170.1925
71.000000 72.157 169.8262
72.000000 72.111 169.4429
73.000000 72.063 169.0351
74.000000 72.014 168.6244
75.000000 71.970 168.2043
76.199997 71.914 167.7315
77.500000 71.856 167.2997
78.800003 71.795 166.8812
80.000000 71.733 166.4940
81.199997 71.671 166.1041
82.500000 71.606 165.6792
83.800003 71.539 165.2575
85.000000 71.474 164.8956
86.199997 71.413 164.5500
87.500000 71.350 164.1993
88.500000 71.298 163.9483
90.000000 71.209 163.5770
91.199997 71.145 163.2881
92.500000 71.077 163.0501
93.800003 70.985 162.9930
95.000000 70.894 163.0363
96.199997 70.837 162.8540
97.500000 70.797 162.3955
98.800003 70.752 162.0422
100.000000 70.701 161.8716
101.500000 70.628 161.7747
103.000000 70.561 161.7710
104.400002 70.513 161.7936
106.000000 70.474 161.7794
107.500000 70.441 161.7137
109.000000 70.405 161.4618
110.599998 70.375 161.0314
112.000000 70.338 160.7687
113.800003 70.279 160.5463
115.000000 70.241 160.3376
117.199997 70.083 159.5748
118.000000 69.985 159.0083
120.599998 69.769 157.9044
122.000000 69.822 158.4100
124.099998 69.830 158.8766
125.000000 69.798 158.8736
126.500000 69.739 158.8021
128.000000 69.679 158.7380
131.500000 69.550 158.5181
132.000000 69.532 158.4886
134.000000 69.463 158.4019
136.000000 69.397 158.4136
138.000000 69.314 158.4399
140.000000 69.190 158.3904
143.000000 68.925 158.4117
145.000000 68.927 158.5269
147.500000 68.998 158.3414
150.000000 68.973 158.1895
152.500000 68.881 158.1966
155.000000 68.782 158.1974
157.500000 68.698 158.1997
160.000000 68.619 158.1963
162.500000 68.538 158.1951
165.000000 68.484 158.0385
167.500000 68.434 157.8643
170.000000 68.342 158.1601
172.500000 68.252 158.4156
175.000000 68.187 158.5134
177.500000 68.134 158.5432
180.000000 68.081 158.5373
182.500000 68.017 158.5894
185.000000 67.949 158.6562
187.500000 67.883 158.7115
190.000000 67.819 158.8055
192.500000 67.756 158.9067
195.000000 67.695 158.9785
197.500000 67.632 159.0605
200.000000 67.571 159.1565
203.000000 67.501 159.2795
206.000000 67.436 159.4072
209.000000 67.373 159.5288
212.000000 67.305 159.6589
214.000000 67.261 159.7693
218.000000 67.179 160.0392
220.000000 67.136 160.1611
224.000000 67.042 160.4101
227.000000 66.979 160.6417
230.000000 66.930 160.8997
233.000000 66.887 161.1627
236.000000 66.849 161.4201
240.000000 66.797 161.7336
243.000000 66.762 161.9207
247.000000 66.727 162.1260
250.000000 66.699 162.2455
254.000000 66.634 162.4380
258.000000 66.570 162.6883
262.000000 66.515 162.9340
265.000000 66.473 163.0919
269.000000 66.417 163.2848
272.000000 66.374 163.4426
276.000000 66.314 163.6783
280.000000 66.259 163.9347
285.000000 66.196 164.2729
290.000000 66.131 164.6025
295.000000 66.064 164.9390
300.000000 66.006 165.2877
304.000000 65.966 165.5768
307.000000 65.939 165.7964
311.000000 65.905 166.0783
315.000000 65.862 166.3536
320.000000 65.806 166.7238
325.000000 65.764 167.1466
330.000000 65.726 167.5438
335.000000 65.683 167.9228
340.000000 65.630 168.2982
345.000000 65.583 168.6366
350.000000 65.543 168.9892
355.000000 65.517 169.3403
360.000000 65.492 169.6814
365.000000 65.463 170.0074
370.000000 65.436 170.2993
375.000000 65.406 170.5842
382.000000 65.356 171.0349
387.000000 65.321 171.3908
395.000000 65.277 171.9408
400.000000 65.251 172.2939
406.000000 65.213 172.7113
412.000000 65.173 173.1053
418.000000 65.139 173.5107
425.000000 65.105 173.9639
431.000000 65.080 174.3549
437.000000 65.052 174.7557
444.000000 65.019 175.2167
450.000000 64.991 175.6169
455.000000 64.968 175.9526
462.000000 64.938 176.3980
468.000000 64.916 176.7733
475.000000 64.893 177.2311
482.000000 64.871 177.7023
487.000000 64.855 178.0375
494.000000 64.832 178.5271
500.000000 64.815 178.9655
508.000000 64.795 179.5317
515.000000 64.775 179.9659
522.000000 64.755 -179.6137
530.000000 64.736 -179.1016
538.000000 64.724 -178.5763
545.000000 64.713 -178.0869
552.000000 64.699 -177.5905
560.000000 64.680 -177.0388
570.000000 64.662 -176.3853
580.000000 64.648 -175.7251
590.000000 64.640 -175.0326
600.000000 64.633 -174.3583
608.000000 64.627 -173.8463
615.000000 64.623 -173.3896
622.000000 64.619 -172.9257
630.000000 64.617 -172.4025
640.000000 64.620 -171.7504
650.000000 64.621 -171.0910
660.000000 64.619 -170.4204
670.000000 64.625 -169.7708
680.000000 64.637 -169.1095
690.000000 64.649 -168.4129
700.000000 64.665 -167.7305
710.000000 64.687 -167.0881
720.000000 64.708 -166.4479
730.000000 64.727 -165.7977
740.000000 64.746 -165.1549
750.000000 64.767 -164.5111
762.000000 64.801 -163.7191
775.000000 64.843 -162.8770
788.000000 64.886 -162.0323
800.000000 64.927 -161.2698
812.000000 64.970 -160.4990
825.000000 65.023 -159.6647
838.000000 65.077 -158.8639
850.000000 65.132 -158.1450
862.000000 65.192 -157.4373
875.000000 65.261 -156.6716
885.000000 65.315 -156.0835
900.000000 65.399 -155.2272
912.000000 65.474 -154.5486
925.000000 65.560 -153.8436
938.000000 65.654 -153.2013
950.000000 65.745 -152.6514
962.000000 65.834 -152.1431
975.000000 65.927 -151.6134
988.000000 66.021 -151.0603
1000.000000 66.115 -150.5406
1015.000000 66.243 -149.9576
1030.000000 66.378 -149.4689
1044.000000 66.504 -149.0855
1060.000000 66.642 -148.7656
1075.000000 66.763 -148.5512
1090.000000 66.868 -148.3538
1106.000000 66.965 -148.0733
1120.000000 67.056 -147.7076
1138.000000 67.201 -147.2444
1150.000000 67.307 -147.0375
1172.000000 67.492 -146.8161
1180.000000 67.554 -146.7621
1206.000000 67.742 -146.6254
1220.000000 67.841 -146.5473
1241.000000 67.987 -146.4381
1250.000000 68.048 -146.3995
1265.000000 68.148 -146.3333
1280.000000 68.246 -146.2477
1315.000000 68.470 -146.0969
1320.000000 68.502 -146.0866
1340.000000 68.625 -146.0424
1360.000000 68.746 -145.9877
1380.000000 68.867 -145.9405
1400.000000 68.985 -145.8952
1430.000000 69.155 -145.8438
1450.000000 69.267 -145.8106
1475.000000 69.405 -145.7846
1500.000000 69.542 -145.7829
1525.000000 69.669 -145.7794
1550.000000 69.794 -145.7995
1575.000000 69.920 -145.8551
1600.000000 70.043 -145.8969
1625.000000 70.162 -145.9351
1650.000000 70.278 -146.0008
1675.000000 70.396 -146.0966
1700.000000 70.513 -146.2112
1725.000000 70.629 -146.3261
1750.000000 70.744 -146.4525
1775.000000 70.859 -146.6104
1800.000000 70.977 -146.7916
1825.000000 71.097 -146.9915
1850.000000 71.216 -147.2200
1875.000000 71.334 -147.4781
1900.000000 71.453 -147.7606
1925.000000 71.573 -148.0559
1950.000000 71.693 -148.3746
1975.000000 71.813 -148.7312
2000.000000 71.932 -149.1126
2030.000000 72.075 -149.6019
2060.000000 72.218 -150.1459
2090.000000 72.355 -150.7234
2120.000000 72.489 -151.3274
2140.000000 72.577 -151.7578
2180.000000 72.747 -152.6744
2200.000000 72.829 -153.1491
2240.000000 72.987 -154.1495
2270.000000 73.099 -154.9387
2300.000000 73.204 -155.7562
2330.000000 73.301 -156.6021
2360.000000 73.391 -157.4844
2400.000000 73.499 -158.7072
2430.000000 73.571 -159.6373
2470.000000 73.652 -160.8933
2500.000000 73.702 -161.8508
2540.000000 73.758 -163.1344
2580.000000 73.801 -164.4144
2620.000000 73.830 -165.6835
2650.000000 73.843 -166.6298
2690.000000 73.848 -167.8826
2720.000000 73.843 -168.8051
2760.000000 73.825 -169.9979
2800.000000 73.798 -171.1463
2850.000000 73.751 -172.5196
2900.000000 73.695 -173.8253
2950.000000 73.630 -175.0388
3000.000000 73.555 -176.1792
3040.000000 73.487 -177.0328
3070.000000 73.434 -177.6410
3110.000000 73.364 -178.4092
3150.000000 73.293 -179.1239
3200.000000 73.201 -179.9575
3250.000000 73.109 179.2884
3300.000000 73.017 178.6181
3350.000000 72.928 178.0138
3400.000000 72.843 177.4714
3450.000000 72.763 176.9926
3500.000000 72.692 176.5570
3550.000000 72.630 176.1529
3600.000000 72.575 175.7675
3650.000000 72.529 175.3698
3700.000000 72.486 174.9414
3750.000000 72.440 174.5063
3820.000000 72.372 173.8808
3870.000000 72.325 173.4291
3950.000000 72.254 172.7027
4000.000000 72.210 172.2351
4060.000000 72.156 171.6658
4120.000000 72.102 171.0674
4180.000000 72.049 170.4179
4250.000000 71.980 169.6210
4310.000000 71.914 168.8956
4370.000000 71.838 168.1277
4440.000000 71.737 167.1982
4500.000000 71.639 166.4068
4550.000000 71.550 165.7807
4620.000000 71.417 164.9319
4680.000000 71.300 164.1975
4750.000000 71.157 163.3247
4820.000000 71.004 162.4368
4870.000000 70.884 161.7990
4940.000000 70.698 160.9009
5000.000000 70.525 160.1616
5080.000000 70.274 159.2516
5150.000000 70.038 158.5353
5220.000000 69.788 157.9170
5300.000000 69.484 157.3348
5380.000000 69.160 156.9008
5450.000000 68.864 156.6703
5520.000000 68.557 156.5976
5600.000000 68.195 156.7876
5700.000000 67.743 157.6309
5800.000000 67.392 159.0311
5900.000000 67.170 159.9176
6000.000000 66.893 160.1633
6080.000000 66.604 160.5303
6150.000000 66.335 161.1108
6220.000000 66.070 161.9041
6300.000000 65.781 163.0288
6400.000000 65.448 164.7196
6500.000000 65.151 166.6318
6600.000000 64.893 168.6621
6700.000000 64.673 170.7897
6800.000000 64.490 173.0515
6900.000000 64.339 175.3969
7000.000000 64.220 177.7792
7100.000000 64.138 -179.7886
7200.000000 64.098 -177.3067
7300.000000 64.099 -174.8226
7400.000000 64.138 -172.3698
7500.000000 64.222 -169.9442
7620.000000 64.385 -167.0905
7750.000000 64.635 -164.1467
7880.000000 64.970 -161.4404
8000.000000 65.361 -159.2777
8120.000000 65.840 -157.5584
8250.000000 66.454 -156.3571
8380.000000 67.159 -156.0446
8500.000000 67.879 -156.8554
8620.000000 68.630 -159.0871
8750.000000 69.396 -163.4436
8850.000000 69.874 -168.2696
9000.000000 70.253 -177.5921
9120.000000 70.165 173.9942
9250.000000 69.656 165.2705
9380.000000 68.788 158.0923
9500.000000 67.773 153.3136
9620.000000 66.649 150.3549
9750.000000 65.400 148.9931
9880.000000 64.180 149.2274
10000.000000 63.111 150.6147
10150.000000 61.871 153.6870
10300.000000 60.750 158.1151
10440.000000 59.834 163.4703
10600.000000 59.010 171.0002
10750.000000 58.552 179.1441
10900.000000 58.506 -172.4335
11060.000000 58.935 -164.5914
11200.000000 59.562 -159.8778
11380.000000 60.374 -157.3192
11500.000000 60.768 -157.2780
11720.000000 61.074 -158.2753
11800.000000 61.081 -158.4841
12060.000000 60.945 -157.6577
12200.000000 60.866 -156.2484
12410.000000 60.840 -153.2183
12500.000000 60.878 -151.6922
12650.000000 61.025 -148.9732
12800.000000 61.283 -146.1368
13150.000000 62.382 -139.6361
13200.000000 62.605 -138.7852
13400.000000 63.704 -135.8427
13600.000000 65.193 -134.2816
13800.000000 67.086 -135.5739
14000.000000 69.138 -142.1802
14300.000000 71.041 -166.7666
14500.000000 70.611 172.1185
14750.000000 68.314 154.3392
15000.000000 65.276 149.5703
15250.000000 62.509 153.4445
15500.000000 60.285 161.3492
15750.000000 58.557 171.0214
16000.000000 57.212 -177.6963
16250.000000 56.147 -164.3769
16500.000000 55.338 -150.1996
16750.000000 54.774 -136.2149
17000.000000 54.421 -122.7025
17250.000000 54.246 -109.8811
17500.000000 54.231 -98.1412
17750.000000 54.354 -88.1685
18000.000000 54.538 -81.2922
18250.000000 54.673 -78.6090
18500.000000 54.638 -79.2067
18750.000000 54.316 -81.7279
19000.000000 53.654 -85.4962
19250.000000 52.698 -89.9200
19500.000000 51.577 -93.7629
19750.000000 50.435 -96.4157
20000.000000 49.386 -98.3117
