* REW测量的测量数据V5.20.13
* 来源: 麦克风 (Realtek High Definition Audio, MICROPHONE (主音), L, volume: no control
* 格式: 512k 对数扫频正弦, 1 扫频 at 0.0 dBFS 没有时间参考
* 日期: 2024-10-11 18:25:13
* REW 设置:
* C计权补偿: 关
*  目标电平: 75.0 dB
* 注释: ; 
* 测量: KXXS T-APB Bass Tips
* 平滑: 1/24 倍频程
* 频率步进: 1/48 倍频程
* 起始频率: 20.300 Hz
*
* 频率(Hz) SPL(dB) 相位(角度)
20.299999 73.575 -138.0162
20.600000 73.588 -138.4363
20.900000 73.610 -139.1811
21.200001 73.627 -139.8753
21.400000 73.635 -140.3136
21.799999 73.648 -141.1781
22.000000 73.652 -141.6167
22.400000 73.658 -142.4969
22.700001 73.660 -143.1489
23.000000 73.659 -143.7885
23.299999 73.658 -144.4174
23.600000 73.656 -145.0445
24.000000 73.653 -145.8901
24.299999 73.649 -146.5338
24.700001 73.642 -147.4003
25.000000 73.636 -148.0547
25.400000 73.630 -148.9311
25.799999 73.626 -149.8049
26.200001 73.625 -150.6673
26.500000 73.627 -151.3029
26.900000 73.631 -152.1294
27.200001 73.634 -152.7271
27.600000 73.637 -153.4846
28.000000 73.639 -154.1902
28.500000 73.643 -155.0136
29.000000 73.647 -155.8222
29.500000 73.649 -156.6580
30.000000 73.644 -157.5117
30.400000 73.635 -158.1742
30.700001 73.627 -158.6444
31.100000 73.619 -159.2339
31.500000 73.616 -159.7956
32.000000 73.617 -160.4931
32.500000 73.618 -161.2051
33.000000 73.612 -161.9164
33.500000 73.599 -162.6037
34.000000 73.583 -163.2650
34.500000 73.568 -163.9143
35.000000 73.553 -164.5563
35.500000 73.540 -165.1846
36.000000 73.530 -165.8002
36.500000 73.522 -166.4168
37.000000 73.511 -167.0398
37.500000 73.494 -167.6488
38.200001 73.464 -168.4274
38.700001 73.445 -168.9376
39.500000 73.425 -169.7684
40.000000 73.414 -170.3139
40.599998 73.396 -170.9590
41.200001 73.378 -171.5630
41.799999 73.363 -172.1433
42.500000 73.344 -172.8275
43.099998 73.322 -173.4014
43.700001 73.294 -173.9238
44.400002 73.263 -174.4872
45.000000 73.240 -174.9927
45.500000 73.221 -175.4447
46.200001 73.193 -176.0915
46.799999 73.175 -176.6410
47.500000 73.159 -177.2548
48.200001 73.142 -177.7464
48.700001 73.136 -178.0055
49.400002 73.137 -178.3791
50.000000 73.127 -178.8438
50.799999 73.071 -179.5930
51.500000 73.000 179.8168
52.200001 72.942 179.2811
53.000000 72.898 178.6516
53.799999 72.861 178.0710
54.500000 72.831 177.6385
55.200001 72.800 177.2347
56.000000 72.760 176.7729
57.000000 72.710 176.1600
58.000000 72.656 175.5286
59.000000 72.600 174.9595
60.000000 72.545 174.4145
60.799999 72.501 173.9574
61.500000 72.463 173.5364
62.200001 72.425 173.1099
63.000000 72.380 172.6672
64.000000 72.325 172.2278
65.000000 72.273 171.8279
66.000000 72.213 171.4283
67.000000 72.155 171.0710
68.000000 72.108 170.6973
69.000000 72.060 170.3344
70.000000 72.008 170.0010
71.000000 71.947 169.6847
72.000000 71.899 169.4482
73.000000 71.887 169.1593
74.000000 71.883 168.7679
75.000000 71.862 168.3885
76.199997 71.819 167.9334
77.500000 71.765 167.3609
78.800003 71.711 166.7911
80.000000 71.660 166.3812
81.199997 71.601 166.0134
82.500000 71.531 165.5683
83.800003 71.465 165.0832
85.000000 71.408 164.6801
86.199997 71.352 164.3074
87.500000 71.284 163.9048
88.500000 71.231 163.6228
90.000000 71.158 163.2430
91.199997 71.090 162.9424
92.500000 71.010 162.6311
93.800003 70.936 162.3603
95.000000 70.870 162.1760
96.199997 70.805 161.9642
97.500000 70.727 161.6420
98.800003 70.648 161.3705
100.000000 70.582 161.2357
101.500000 70.503 161.1715
103.000000 70.422 161.1580
104.400002 70.354 161.1667
106.000000 70.294 161.2460
107.500000 70.248 161.2366
109.000000 70.221 161.0808
110.599998 70.200 160.8965
112.000000 70.160 160.6679
113.800003 70.142 160.3615
115.000000 70.141 160.2726
117.199997 70.320 158.7248
118.000000 70.571 157.4811
120.599998 70.941 154.9408
122.000000 70.436 156.8347
124.099998 69.844 158.4860
125.000000 69.757 158.4893
126.500000 69.683 158.4206
128.000000 69.601 158.2951
131.500000 69.433 157.9447
132.000000 69.412 157.9045
134.000000 69.340 157.8138
136.000000 69.260 157.8021
138.000000 69.179 157.7449
140.000000 69.120 157.6793
143.000000 69.053 157.5692
145.000000 68.969 157.5539
147.500000 68.823 157.6802
150.000000 68.703 157.8687
152.500000 68.629 157.7513
155.000000 68.556 157.6486
157.500000 68.470 157.5688
160.000000 68.378 157.4655
162.500000 68.259 157.2570
165.000000 68.069 156.6298
167.500000 67.926 156.0639
170.000000 67.954 156.8536
172.500000 67.930 157.6404
175.000000 67.869 158.0069
177.500000 67.806 158.2614
180.000000 67.725 158.4865
182.500000 67.605 158.6924
185.000000 67.518 158.8514
187.500000 67.467 159.0721
190.000000 67.413 159.7375
192.500000 67.363 160.2521
195.000000 67.330 160.3182
197.500000 67.294 160.4925
200.000000 67.242 160.9113
203.000000 67.204 161.5246
206.000000 67.204 161.9953
209.000000 67.237 162.2422
212.000000 67.282 162.1724
214.000000 67.296 161.9365
218.000000 67.268 161.8613
220.000000 67.237 161.9443
224.000000 67.170 161.7617
227.000000 67.124 161.5401
230.000000 67.082 161.4398
233.000000 67.026 161.5081
236.000000 66.969 161.5975
240.000000 66.899 161.7540
243.000000 66.838 161.8842
247.000000 66.761 162.0927
250.000000 66.710 162.2613
254.000000 66.631 162.3561
258.000000 66.556 162.4486
262.000000 66.485 162.5289
265.000000 66.435 162.6800
269.000000 66.376 163.0406
272.000000 66.330 163.2743
276.000000 66.270 163.5414
280.000000 66.216 163.7937
285.000000 66.158 164.1096
290.000000 66.105 164.4726
295.000000 66.055 164.8421
300.000000 65.998 165.1411
304.000000 65.949 165.3671
307.000000 65.912 165.5330
311.000000 65.862 165.7899
315.000000 65.815 166.0722
320.000000 65.767 166.3953
325.000000 65.722 166.7195
330.000000 65.672 167.0533
335.000000 65.620 167.3931
340.000000 65.572 167.7684
345.000000 65.528 168.1276
350.000000 65.482 168.4607
355.000000 65.445 168.7761
360.000000 65.405 169.1257
365.000000 65.363 169.4772
370.000000 65.325 169.8272
375.000000 65.292 170.1874
382.000000 65.243 170.6437
387.000000 65.208 170.9756
395.000000 65.160 171.5069
400.000000 65.133 171.8471
406.000000 65.096 172.2856
412.000000 65.058 172.7091
418.000000 65.023 173.1152
425.000000 64.983 173.5870
431.000000 64.949 173.9981
437.000000 64.919 174.4067
444.000000 64.889 174.8894
450.000000 64.862 175.3222
455.000000 64.841 175.6465
462.000000 64.812 176.0753
468.000000 64.791 176.4537
475.000000 64.771 176.9247
482.000000 64.750 177.3971
487.000000 64.735 177.7476
494.000000 64.710 178.2549
500.000000 64.687 178.6612
508.000000 64.663 179.1813
515.000000 64.643 179.6496
522.000000 64.626 -179.8849
530.000000 64.609 -179.3416
538.000000 64.589 -178.7934
545.000000 64.568 -178.3011
552.000000 64.553 -177.8100
560.000000 64.543 -177.2774
570.000000 64.533 -176.6299
580.000000 64.525 -175.9736
590.000000 64.515 -175.2974
600.000000 64.504 -174.6509
608.000000 64.502 -174.1311
615.000000 64.498 -173.6558
622.000000 64.494 -173.1792
630.000000 64.494 -172.6560
640.000000 64.497 -172.0107
650.000000 64.500 -171.3443
660.000000 64.505 -170.6802
670.000000 64.510 -169.9998
680.000000 64.518 -169.3313
690.000000 64.529 -168.6850
700.000000 64.541 -168.0095
710.000000 64.554 -167.3282
720.000000 64.569 -166.6699
730.000000 64.590 -166.0229
740.000000 64.614 -165.3826
750.000000 64.638 -164.7361
762.000000 64.669 -163.9436
775.000000 64.708 -163.0914
788.000000 64.748 -162.2699
800.000000 64.790 -161.5270
812.000000 64.838 -160.7911
825.000000 64.891 -159.9837
838.000000 64.945 -159.1670
850.000000 64.998 -158.4330
862.000000 65.059 -157.7271
875.000000 65.128 -156.9748
885.000000 65.181 -156.3942
900.000000 65.265 -155.5375
912.000000 65.342 -154.8768
925.000000 65.430 -154.2054
938.000000 65.522 -153.5956
950.000000 65.605 -153.0536
962.000000 65.685 -152.5263
975.000000 65.774 -151.9615
988.000000 65.868 -151.3682
1000.000000 65.963 -150.8313
1015.000000 66.095 -150.2539
1030.000000 66.232 -149.7754
1044.000000 66.355 -149.3958
1060.000000 66.490 -149.0614
1075.000000 66.605 -148.8477
1090.000000 66.708 -148.6222
1106.000000 66.808 -148.2590
1120.000000 66.908 -147.8748
1138.000000 67.061 -147.4892
1150.000000 67.165 -147.3229
1172.000000 67.342 -147.1254
1180.000000 67.402 -147.0751
1206.000000 67.591 -146.9149
1220.000000 67.690 -146.8288
1241.000000 67.835 -146.7248
1250.000000 67.895 -146.6806
1265.000000 67.993 -146.6108
1280.000000 68.091 -146.5491
1315.000000 68.311 -146.4254
1320.000000 68.341 -146.4040
1340.000000 68.464 -146.3219
1360.000000 68.586 -146.2732
1380.000000 68.706 -146.2561
1400.000000 68.824 -146.2242
1430.000000 68.992 -146.1576
1450.000000 69.104 -146.1385
1475.000000 69.242 -146.1343
1500.000000 69.373 -146.1217
1525.000000 69.499 -146.1019
1550.000000 69.624 -146.1068
1575.000000 69.750 -146.1423
1600.000000 69.873 -146.1915
1625.000000 69.989 -146.2318
1650.000000 70.103 -146.2891
1675.000000 70.220 -146.3682
1700.000000 70.338 -146.4680
1725.000000 70.454 -146.5932
1750.000000 70.569 -146.7273
1775.000000 70.683 -146.8692
1800.000000 70.798 -147.0370
1825.000000 70.914 -147.2270
1850.000000 71.031 -147.4385
1875.000000 71.149 -147.6815
1900.000000 71.268 -147.9525
1925.000000 71.386 -148.2493
1950.000000 71.506 -148.5729
1975.000000 71.626 -148.9229
2000.000000 71.745 -149.2928
2030.000000 71.888 -149.7643
2060.000000 72.030 -150.2831
2090.000000 72.168 -150.8482
2120.000000 72.303 -151.4531
2140.000000 72.392 -151.8746
2180.000000 72.564 -152.7632
2200.000000 72.646 -153.2290
2240.000000 72.804 -154.2098
2270.000000 72.915 -155.0002
2300.000000 73.021 -155.8226
2330.000000 73.120 -156.6608
2360.000000 73.212 -157.5280
2400.000000 73.323 -158.7232
2430.000000 73.397 -159.6316
2470.000000 73.481 -160.8653
2500.000000 73.535 -161.8122
2540.000000 73.594 -163.0921
2580.000000 73.639 -164.3837
2620.000000 73.670 -165.6642
2650.000000 73.685 -166.6125
2690.000000 73.694 -167.8592
2720.000000 73.693 -168.7793
2760.000000 73.680 -169.9800
2800.000000 73.657 -171.1468
2850.000000 73.617 -172.5528
2900.000000 73.562 -173.8934
2950.000000 73.499 -175.1477
3000.000000 73.427 -176.3247
3040.000000 73.363 -177.2163
3070.000000 73.311 -177.8543
3110.000000 73.241 -178.6575
3150.000000 73.169 -179.4040
3200.000000 73.076 179.7216
3250.000000 72.983 178.9135
3300.000000 72.890 178.1729
3350.000000 72.799 177.4995
3400.000000 72.709 176.8896
3450.000000 72.622 176.3258
3500.000000 72.538 175.8054
3550.000000 72.459 175.3286
3600.000000 72.384 174.8944
3650.000000 72.313 174.4769
3700.000000 72.245 174.0775
3750.000000 72.177 173.7078
3820.000000 72.087 173.2096
3870.000000 72.028 172.8607
3950.000000 71.941 172.2767
4000.000000 71.888 171.9111
4060.000000 71.824 171.4739
4120.000000 71.764 171.0186
4180.000000 71.706 170.5417
4250.000000 71.637 169.9500
4310.000000 71.575 169.4041
4370.000000 71.509 168.8136
4440.000000 71.427 168.0717
4500.000000 71.351 167.4106
4550.000000 71.280 166.8488
4620.000000 71.172 166.0260
4680.000000 71.072 165.2850
4750.000000 70.945 164.3985
4820.000000 70.799 163.5216
4870.000000 70.681 162.9087
4940.000000 70.500 162.0572
5000.000000 70.332 161.3696
5080.000000 70.091 160.5629
5150.000000 69.868 159.9631
5220.000000 69.636 159.4464
5300.000000 69.358 158.9424
5380.000000 69.063 158.5760
5450.000000 68.793 158.3876
5520.000000 68.512 158.3385
5600.000000 68.175 158.5367
5700.000000 67.761 159.4141
5800.000000 67.463 160.7670
5900.000000 67.273 161.4767
6000.000000 67.016 161.6854
6080.000000 66.754 162.0736
6150.000000 66.517 162.6371
6220.000000 66.287 163.3682
6300.000000 66.039 164.3757
6400.000000 65.755 165.8488
6500.000000 65.499 167.4810
6600.000000 65.274 169.2323
6700.000000 65.083 171.1028
6800.000000 64.928 173.0795
6900.000000 64.803 175.0973
7000.000000 64.707 177.1368
7100.000000 64.647 179.1996
7200.000000 64.625 -178.7041
7300.000000 64.637 -176.6258
7400.000000 64.681 -174.5838
7500.000000 64.764 -172.5843
7620.000000 64.919 -170.2547
7750.000000 65.146 -167.8617
7880.000000 65.444 -165.6463
8000.000000 65.801 -163.8397
8120.000000 66.257 -162.3884
8250.000000 66.873 -161.4430
8380.000000 67.613 -161.5213
8500.000000 68.381 -162.9666
8620.000000 69.169 -166.2401
8750.000000 69.917 -172.2517
8850.000000 70.305 -178.6080
9000.000000 70.396 169.9623
9120.000000 69.975 160.6740
9250.000000 69.078 152.1366
9380.000000 67.874 146.0793
9500.000000 66.635 142.7344
9620.000000 65.377 141.2186
9750.000000 64.058 141.2100
9880.000000 62.815 142.5266
10000.000000 61.746 144.6941
10150.000000 60.523 148.5183
10300.000000 59.423 153.5003
10440.000000 58.521 159.2183
10600.000000 57.693 167.0237
10750.000000 57.208 175.3691
10900.000000 57.114 -175.9379
11060.000000 57.489 -167.6607
11200.000000 58.087 -162.4554
11380.000000 58.894 -159.2566
11500.000000 59.295 -158.8676
11720.000000 59.618 -159.4676
11800.000000 59.626 -159.6034
12060.000000 59.455 -158.6219
12200.000000 59.337 -157.1185
12410.000000 59.237 -153.8798
12500.000000 59.235 -152.2482
12650.000000 59.299 -149.3143
12800.000000 59.456 -146.1942
13150.000000 60.224 -138.7212
13200.000000 60.385 -137.6673
13400.000000 61.179 -133.6442
13600.000000 62.245 -130.2734
13800.000000 63.630 -128.1125
14000.000000 65.350 -128.0276
14300.000000 68.181 -135.9403
14500.000000 69.505 -149.8176
14750.000000 69.539 -173.0965
15000.000000 67.737 170.0277
15250.000000 65.075 165.5216
15500.000000 62.535 168.9925
15750.000000 60.492 176.2672
16000.000000 58.927 -173.8318
16250.000000 57.727 -161.4870
16500.000000 56.851 -148.1144
16750.000000 56.277 -134.8223
17000.000000 55.958 -122.1246
17250.000000 55.861 -110.4630
17500.000000 55.954 -100.3800
17750.000000 56.168 -92.8446
18000.000000 56.344 -89.3459
18250.000000 56.265 -90.6055
18500.000000 55.751 -94.7459
18750.000000 54.746 -99.1520
19000.000000 53.342 -102.6317
19250.000000 51.728 -105.1312
19500.000000 50.091 -106.3053
19750.000000 48.580 -106.1467
20000.000000 47.272 -105.2879
