* REW测量的测量数据V5.20.13
* 来源: 麦克风 (Realtek High Definition Audio, MICROPHONE (主音), L, volume: no control
* 格式: 512k 对数扫频正弦, 1 扫频 at 0.0 dBFS 没有时间参考
* 日期: 2024-10-11 18:26:05
* REW 设置:
* C计权补偿: 关
*  目标电平: 75.0 dB
* 注释: ; 
* 测量: KXXS T-APB Treble Tips
* 平滑: 1/24 倍频程
* 频率步进: 1/48 倍频程
* 起始频率: 20.300 Hz
*
* 频率(Hz) SPL(dB) 相位(角度)
20.299999 73.601 -137.6469
20.600000 73.615 -138.0617
20.900000 73.641 -138.7961
21.200001 73.659 -139.4784
21.400000 73.668 -139.9085
21.799999 73.680 -140.7582
22.000000 73.684 -141.1916
22.400000 73.689 -142.0677
22.700001 73.689 -142.7239
23.000000 73.688 -143.3754
23.299999 73.686 -144.0247
23.600000 73.684 -144.6792
24.000000 73.681 -145.5670
24.299999 73.676 -146.2383
24.700001 73.668 -147.1252
25.000000 73.663 -147.7769
25.400000 73.658 -148.6268
25.799999 73.660 -149.4588
26.200001 73.666 -150.2811
26.500000 73.674 -150.8958
26.900000 73.686 -151.7116
27.200001 73.693 -152.3135
27.600000 73.700 -153.0886
28.000000 73.702 -153.8169
28.500000 73.703 -154.6600
29.000000 73.705 -155.4612
29.500000 73.706 -156.2584
30.000000 73.704 -157.0604
30.400000 73.699 -157.6907
30.700001 73.694 -158.1478
31.100000 73.688 -158.7319
31.500000 73.683 -159.2936
32.000000 73.680 -159.9880
32.500000 73.677 -160.6957
33.000000 73.669 -161.4128
33.500000 73.655 -162.1146
34.000000 73.638 -162.7828
34.500000 73.623 -163.4230
35.000000 73.612 -164.0538
35.500000 73.603 -164.6876
36.000000 73.595 -165.3219
36.500000 73.587 -165.9489
37.000000 73.578 -166.5624
37.500000 73.568 -167.1567
38.200001 73.553 -167.9485
38.700001 73.541 -168.4917
39.500000 73.519 -169.3537
40.000000 73.501 -169.8887
40.599998 73.476 -170.5079
41.200001 73.451 -171.0890
41.799999 73.430 -171.6412
42.500000 73.411 -172.2780
43.099998 73.395 -172.8350
43.700001 73.375 -173.3936
44.400002 73.350 -174.0247
45.000000 73.331 -174.5581
45.500000 73.316 -175.0125
46.200001 73.288 -175.6279
46.799999 73.258 -176.0787
47.500000 73.227 -176.5674
48.200001 73.187 -177.1553
48.700001 73.142 -177.6090
49.400002 73.068 -178.1188
50.000000 73.030 -178.4263
50.799999 73.033 -178.9344
51.500000 73.044 -179.5747
52.200001 73.029 179.8038
53.000000 72.996 179.2535
53.799999 72.961 178.7390
54.500000 72.926 178.2568
55.200001 72.891 177.7859
56.000000 72.853 177.2979
57.000000 72.809 176.7579
58.000000 72.762 176.2374
59.000000 72.716 175.6768
60.000000 72.675 175.0661
60.799999 72.641 174.5890
61.500000 72.610 174.2091
62.200001 72.579 173.8502
63.000000 72.544 173.4386
64.000000 72.503 172.9094
65.000000 72.467 172.3697
66.000000 72.427 171.8623
67.000000 72.380 171.4183
68.000000 72.330 171.0031
69.000000 72.283 170.5520
70.000000 72.232 170.0815
71.000000 72.182 169.6616
72.000000 72.135 169.2803
73.000000 72.087 168.8955
74.000000 72.035 168.4988
75.000000 71.983 168.1190
76.199997 71.927 167.7125
77.500000 71.872 167.2969
78.800003 71.811 166.8947
80.000000 71.754 166.4971
81.199997 71.697 166.0936
82.500000 71.638 165.7046
83.800003 71.579 165.3452
85.000000 71.522 165.0051
86.199997 71.463 164.6549
87.500000 71.402 164.2633
88.500000 71.358 163.9451
90.000000 71.290 163.5098
91.199997 71.240 163.2221
92.500000 71.184 162.9197
93.800003 71.121 162.6350
95.000000 71.059 162.3769
96.199997 71.002 162.1270
97.500000 70.950 161.8625
98.800003 70.896 161.6217
100.000000 70.840 161.4189
101.500000 70.767 161.1391
103.000000 70.692 160.8330
104.400002 70.629 160.5862
106.000000 70.556 160.3513
107.500000 70.479 160.1089
109.000000 70.417 159.8507
110.599998 70.351 159.7008
112.000000 70.285 159.5364
113.800003 70.221 159.3357
115.000000 70.178 159.3164
117.199997 70.322 158.7188
118.000000 70.549 158.4325
120.599998 70.904 157.8113
122.000000 70.426 158.2610
124.099998 69.878 158.5345
125.000000 69.802 158.5038
126.500000 69.730 158.5025
128.000000 69.660 158.3198
131.500000 69.536 157.8175
132.000000 69.520 157.7978
134.000000 69.451 157.8689
136.000000 69.370 157.9228
138.000000 69.293 157.8209
140.000000 69.224 157.6071
143.000000 69.098 157.0215
145.000000 69.015 157.0196
147.500000 68.917 157.2937
150.000000 68.803 157.3274
152.500000 68.743 157.2799
155.000000 68.685 157.2596
157.500000 68.603 157.2650
160.000000 68.506 157.2937
162.500000 68.412 157.3884
165.000000 68.347 157.6336
167.500000 68.306 157.8373
170.000000 68.218 157.7509
172.500000 68.116 157.6528
175.000000 68.027 157.6871
177.500000 67.951 157.7858
180.000000 67.883 157.9157
182.500000 67.805 158.1226
185.000000 67.723 158.3408
187.500000 67.659 158.5576
190.000000 67.614 158.7785
192.500000 67.576 159.0593
195.000000 67.535 159.3476
197.500000 67.500 159.5275
200.000000 67.465 159.6130
203.000000 67.413 159.6907
206.000000 67.352 159.7758
209.000000 67.285 159.8583
212.000000 67.215 159.9551
214.000000 67.170 159.9883
218.000000 67.088 160.2072
220.000000 67.048 160.4250
224.000000 66.951 160.7923
227.000000 66.887 161.0163
230.000000 66.834 161.3009
233.000000 66.782 161.6775
236.000000 66.736 162.0399
240.000000 66.701 162.5179
243.000000 66.698 162.8729
247.000000 66.708 163.2106
250.000000 66.709 163.3499
254.000000 66.682 163.4760
258.000000 66.649 163.4719
262.000000 66.615 163.4143
265.000000 66.576 163.4756
269.000000 66.520 163.6273
272.000000 66.484 163.7004
276.000000 66.437 163.8059
280.000000 66.383 163.9503
285.000000 66.316 164.1619
290.000000 66.250 164.3896
295.000000 66.189 164.6406
300.000000 66.123 164.9504
304.000000 66.068 165.2123
307.000000 66.029 165.3948
311.000000 65.977 165.6179
315.000000 65.930 165.8474
320.000000 65.872 166.2010
325.000000 65.820 166.5722
330.000000 65.780 166.9232
335.000000 65.740 167.2579
340.000000 65.706 167.5638
345.000000 65.671 167.9184
350.000000 65.630 168.3113
355.000000 65.580 168.6623
360.000000 65.535 168.9639
365.000000 65.499 169.2677
370.000000 65.460 169.6017
375.000000 65.420 169.9248
382.000000 65.375 170.3870
387.000000 65.342 170.7103
395.000000 65.295 171.2105
400.000000 65.269 171.5350
406.000000 65.234 171.9254
412.000000 65.199 172.2981
418.000000 65.169 172.6855
425.000000 65.134 173.1259
431.000000 65.098 173.4893
437.000000 65.062 173.8701
444.000000 65.028 174.2877
450.000000 65.000 174.6218
455.000000 64.982 174.9508
462.000000 64.957 175.4885
468.000000 64.930 175.9269
475.000000 64.899 176.3666
482.000000 64.875 176.7767
487.000000 64.859 177.0865
494.000000 64.835 177.5405
500.000000 64.812 177.9320
508.000000 64.784 178.4825
515.000000 64.763 178.9752
522.000000 64.744 179.4474
530.000000 64.724 179.9558
538.000000 64.708 -179.5277
545.000000 64.693 -179.0863
552.000000 64.681 -178.6428
560.000000 64.672 -178.1161
570.000000 64.657 -177.4576
580.000000 64.644 -176.8043
590.000000 64.633 -176.1614
600.000000 64.624 -175.5230
608.000000 64.618 -175.0047
615.000000 64.611 -174.5576
622.000000 64.607 -174.1252
630.000000 64.605 -173.6244
640.000000 64.601 -172.9506
650.000000 64.599 -172.2965
660.000000 64.605 -171.6674
670.000000 64.616 -171.0264
680.000000 64.624 -170.3691
690.000000 64.633 -169.7253
700.000000 64.648 -169.0851
710.000000 64.663 -168.4366
720.000000 64.681 -167.7920
730.000000 64.698 -167.1392
740.000000 64.719 -166.4664
750.000000 64.744 -165.8101
762.000000 64.776 -165.0650
775.000000 64.812 -164.2734
788.000000 64.852 -163.4834
800.000000 64.890 -162.7321
812.000000 64.933 -161.9991
825.000000 64.979 -161.2166
838.000000 65.029 -160.4319
850.000000 65.079 -159.7028
862.000000 65.135 -158.9962
875.000000 65.203 -158.2646
885.000000 65.259 -157.7010
900.000000 65.345 -156.8700
912.000000 65.418 -156.2319
925.000000 65.500 -155.5786
938.000000 65.590 -154.9691
950.000000 65.673 -154.4439
962.000000 65.756 -153.9589
975.000000 65.845 -153.4291
988.000000 65.934 -152.8605
1000.000000 66.024 -152.3234
1015.000000 66.151 -151.7407
1030.000000 66.285 -151.2913
1044.000000 66.408 -150.9389
1060.000000 66.544 -150.6246
1075.000000 66.660 -150.4254
1090.000000 66.758 -150.2447
1106.000000 66.852 -149.9384
1120.000000 66.946 -149.5546
1138.000000 67.093 -149.1381
1150.000000 67.195 -148.9612
1172.000000 67.372 -148.7812
1180.000000 67.434 -148.7374
1206.000000 67.622 -148.6086
1220.000000 67.717 -148.5473
1241.000000 67.856 -148.4407
1250.000000 67.913 -148.3956
1265.000000 68.009 -148.3416
1280.000000 68.103 -148.2997
1315.000000 68.318 -148.1816
1320.000000 68.348 -148.1682
1340.000000 68.468 -148.1327
1360.000000 68.586 -148.0919
1380.000000 68.702 -148.0401
1400.000000 68.815 -148.0008
1430.000000 68.975 -147.9470
1450.000000 69.080 -147.9237
1475.000000 69.213 -147.9167
1500.000000 69.344 -147.9191
1525.000000 69.466 -147.9036
1550.000000 69.587 -147.9128
1575.000000 69.708 -147.9252
1600.000000 69.828 -147.9420
1625.000000 69.942 -147.9819
1650.000000 70.053 -148.0370
1675.000000 70.165 -148.1006
1700.000000 70.278 -148.1845
1725.000000 70.391 -148.2841
1750.000000 70.505 -148.3951
1775.000000 70.618 -148.5236
1800.000000 70.733 -148.6655
1825.000000 70.850 -148.8354
1850.000000 70.968 -149.0264
1875.000000 71.086 -149.2413
1900.000000 71.205 -149.4825
1925.000000 71.324 -149.7449
1950.000000 71.446 -150.0267
1975.000000 71.567 -150.3353
2000.000000 71.689 -150.6728
2030.000000 71.838 -151.1136
2060.000000 71.986 -151.6090
2090.000000 72.131 -152.1410
2120.000000 72.274 -152.7003
2140.000000 72.368 -153.0990
2180.000000 72.552 -153.9621
2200.000000 72.641 -154.4196
2240.000000 72.815 -155.3896
2270.000000 72.940 -156.1604
2300.000000 73.059 -156.9681
2330.000000 73.173 -157.8192
2360.000000 73.281 -158.7086
2400.000000 73.413 -159.9504
2430.000000 73.503 -160.9036
2470.000000 73.608 -162.2092
2500.000000 73.679 -163.2222
2540.000000 73.760 -164.6087
2580.000000 73.827 -166.0183
2620.000000 73.879 -167.4259
2650.000000 73.908 -168.4877
2690.000000 73.932 -169.9169
2720.000000 73.941 -170.9853
2760.000000 73.942 -172.3884
2800.000000 73.930 -173.7585
2850.000000 73.896 -175.4369
2900.000000 73.847 -177.0559
2950.000000 73.783 -178.5926
3000.000000 73.706 179.9549
3040.000000 73.634 178.8488
3070.000000 73.576 178.0498
3110.000000 73.495 177.0302
3150.000000 73.411 176.0680
3200.000000 73.300 174.9379
3250.000000 73.186 173.8990
3300.000000 73.068 172.9439
3350.000000 72.950 172.0610
3400.000000 72.832 171.2493
3450.000000 72.714 170.5099
3500.000000 72.598 169.8345
3550.000000 72.483 169.2165
3600.000000 72.372 168.6598
3650.000000 72.265 168.1403
3700.000000 72.161 167.6544
3750.000000 72.057 167.2146
3820.000000 71.914 166.6474
3870.000000 71.817 166.2699
3950.000000 71.672 165.6935
4000.000000 71.582 165.3593
4060.000000 71.476 164.9803
4120.000000 71.373 164.6114
4180.000000 71.274 164.2468
4250.000000 71.162 163.8124
4310.000000 71.066 163.4365
4370.000000 70.971 163.0472
4440.000000 70.862 162.5672
4500.000000 70.766 162.1367
4550.000000 70.685 161.7752
4620.000000 70.569 161.2527
4680.000000 70.469 160.7775
4750.000000 70.351 160.1880
4820.000000 70.224 159.5715
4870.000000 70.126 159.1292
4940.000000 69.982 158.4927
5000.000000 69.851 157.9285
5080.000000 69.662 157.1751
5150.000000 69.484 156.5289
5220.000000 69.292 155.8999
5300.000000 69.056 155.2263
5380.000000 68.798 154.6406
5450.000000 68.556 154.2207
5520.000000 68.298 153.9088
5600.000000 67.985 153.7734
5700.000000 67.590 154.1280
5800.000000 67.286 154.8829
5900.000000 67.068 155.0231
6000.000000 66.761 154.6695
6080.000000 66.442 154.6473
6150.000000 66.143 154.9445
6220.000000 65.846 155.5076
6300.000000 65.520 156.4213
6400.000000 65.143 157.9156
6500.000000 64.808 159.6693
6600.000000 64.516 161.5719
6700.000000 64.270 163.6222
6800.000000 64.071 165.8308
6900.000000 63.911 168.0851
7000.000000 63.790 170.3216
7100.000000 63.711 172.5435
7200.000000 63.672 174.7596
7300.000000 63.667 176.9431
7400.000000 63.696 179.0659
7500.000000 63.765 -178.8832
7620.000000 63.905 -176.5392
7750.000000 64.123 -174.2142
7880.000000 64.402 -172.2062
8000.000000 64.718 -170.7569
8120.000000 65.093 -169.7890
8250.000000 65.556 -169.3876
8380.000000 66.057 -169.8301
8500.000000 66.530 -171.1663
8620.000000 66.976 -173.5706
8750.000000 67.366 -177.4287
8850.000000 67.552 178.8484
9000.000000 67.581 172.5372
9120.000000 67.376 167.4225
9250.000000 66.953 162.4031
9380.000000 66.377 158.2511
9500.000000 65.761 155.2103
9620.000000 65.094 152.8317
9750.000000 64.328 150.9134
9880.000000 63.518 149.6651
10000.000000 62.733 149.1648
10150.000000 61.714 149.5920
10300.000000 60.680 151.3741
10440.000000 59.745 154.3897
10600.000000 58.801 159.4897
10750.000000 58.156 165.6648
10900.000000 57.874 172.4760
11060.000000 58.028 178.9561
11200.000000 58.426 -177.2672
11380.000000 58.960 -175.6717
11500.000000 59.173 -176.2127
11720.000000 59.137 -178.2885
11800.000000 59.008 -178.8910
12060.000000 58.369 -179.1631
12200.000000 57.978 -178.2317
12410.000000 57.430 -175.7817
12500.000000 57.225 -174.4350
12650.000000 56.934 -171.8989
12800.000000 56.705 -169.0853
13150.000000 56.421 -161.8516
13200.000000 56.407 -160.7654
13400.000000 56.419 -156.3125
13600.000000 56.536 -151.7510
13800.000000 56.772 -147.1479
14000.000000 57.128 -142.5462
14300.000000 57.863 -135.7269
14500.000000 58.513 -131.6816
14750.000000 59.500 -127.9204
15000.000000 60.596 -125.5827
15250.000000 61.691 -124.5130
15500.000000 62.624 -126.1576
15750.000000 63.129 -130.9232
16000.000000 62.965 -136.1443
16250.000000 62.134 -138.0121
16500.000000 60.908 -135.6786
16750.000000 59.613 -130.0327
17000.000000 58.442 -122.1741
17250.000000 57.471 -113.1285
17500.000000 56.728 -103.7930
17750.000000 56.203 -95.1974
18000.000000 55.844 -88.9359
18250.000000 55.547 -86.3900
18500.000000 55.183 -87.0932
18750.000000 54.595 -90.1461
19000.000000 53.645 -94.9999
19250.000000 52.304 -100.6768
19500.000000 50.660 -105.3907
19750.000000 48.853 -108.1125
20000.000000 47.020 -108.8452
