* REW测量的测量数据V5.20.13
* 来源: 麦克风 (Realtek High Definition Audio, MICROPHONE (主音), L, volume: no control
* 格式: 512k 对数扫频正弦, 1 扫频 at 0.0 dBFS 没有时间参考
* 日期: 2024-10-11 18:16:50
* REW 设置:
* C计权补偿: 关
*  目标电平: 75.0 dB
* 注释: ; 
* 测量: KXXS Spring Tips
* 平滑: 1/24 倍频程
* 频率步进: 1/48 倍频程
* 起始频率: 20.300 Hz
*
* 频率(Hz) SPL(dB) 相位(角度)
20.299999 73.569 -138.2843
20.600000 73.585 -138.6801
20.900000 73.614 -139.3847
21.200001 73.638 -140.0488
21.400000 73.650 -140.4728
21.799999 73.669 -141.3190
22.000000 73.676 -141.7524
22.400000 73.685 -142.6287
22.700001 73.687 -143.2823
23.000000 73.685 -143.9254
23.299999 73.681 -144.5580
23.600000 73.677 -145.1876
24.000000 73.671 -146.0340
24.299999 73.666 -146.6770
24.700001 73.658 -147.5434
25.000000 73.652 -148.1997
25.400000 73.644 -149.0811
25.799999 73.637 -149.9562
26.200001 73.630 -150.8051
26.500000 73.625 -151.4142
26.900000 73.622 -152.1825
27.200001 73.623 -152.7255
27.600000 73.627 -153.4111
28.000000 73.635 -154.0658
28.500000 73.648 -154.8651
29.000000 73.661 -155.6691
29.500000 73.671 -156.4856
30.000000 73.677 -157.3035
30.400000 73.679 -157.9479
30.700001 73.679 -158.4213
31.100000 73.679 -159.0352
31.500000 73.677 -159.6269
32.000000 73.675 -160.3372
32.500000 73.672 -161.0236
33.000000 73.667 -161.6952
33.500000 73.657 -162.3551
34.000000 73.643 -163.0049
34.500000 73.627 -163.6517
35.000000 73.612 -164.3071
35.500000 73.597 -164.9773
36.000000 73.582 -165.6553
36.500000 73.568 -166.3248
37.000000 73.555 -166.9669
37.500000 73.542 -167.5666
38.200001 73.526 -168.3293
38.700001 73.517 -168.8424
39.500000 73.503 -169.6855
40.000000 73.490 -170.2358
40.599998 73.468 -170.8871
41.200001 73.447 -171.4968
41.799999 73.429 -172.0718
42.500000 73.411 -172.7344
43.099998 73.388 -173.3024
43.700001 73.356 -173.8428
44.400002 73.317 -174.4197
45.000000 73.293 -174.9069
45.500000 73.280 -175.3464
46.200001 73.262 -175.9975
46.799999 73.241 -176.5212
47.500000 73.208 -177.0710
48.200001 73.163 -177.6191
48.700001 73.119 -178.0015
49.400002 73.056 -178.4555
50.000000 73.025 -178.8060
50.799999 73.024 -179.4124
51.500000 73.025 179.9328
52.200001 73.009 179.3550
53.000000 72.982 178.8506
53.799999 72.947 178.3708
54.500000 72.908 177.9307
55.200001 72.870 177.4952
56.000000 72.835 176.9973
57.000000 72.797 176.3776
58.000000 72.755 175.8025
59.000000 72.714 175.2346
60.000000 72.673 174.6118
60.799999 72.636 174.1137
61.500000 72.604 173.7096
62.200001 72.572 173.3273
63.000000 72.536 172.9039
64.000000 72.488 172.4015
65.000000 72.441 171.9155
66.000000 72.393 171.4155
67.000000 72.342 170.9166
68.000000 72.292 170.4320
69.000000 72.244 169.9763
70.000000 72.194 169.5823
71.000000 72.146 169.2205
72.000000 72.097 168.8274
73.000000 72.047 168.3956
74.000000 71.996 167.9680
75.000000 71.946 167.5787
76.199997 71.891 167.1303
77.500000 71.828 166.6276
78.800003 71.762 166.1539
80.000000 71.701 165.7570
81.199997 71.641 165.3894
82.500000 71.577 164.9992
83.800003 71.505 164.6018
85.000000 71.435 164.2545
86.199997 71.374 163.9164
87.500000 71.310 163.5509
88.500000 71.253 163.3053
90.000000 71.172 162.9796
91.199997 71.112 162.7125
92.500000 71.033 162.4023
93.800003 70.936 161.9975
95.000000 70.849 161.6569
96.199997 70.808 161.5668
97.500000 70.803 161.5330
98.800003 70.769 161.4031
100.000000 70.718 161.2026
101.500000 70.660 160.8763
103.000000 70.604 160.5347
104.400002 70.542 160.2220
106.000000 70.465 159.9241
107.500000 70.379 159.7398
109.000000 70.299 159.5193
110.599998 70.241 159.3119
112.000000 70.185 159.1588
113.800003 70.101 158.7659
115.000000 70.043 158.4826
117.199997 69.911 157.0482
118.000000 69.894 155.7697
120.599998 69.788 153.6682
122.000000 69.681 156.0132
124.099998 69.535 158.2065
125.000000 69.489 158.3561
126.500000 69.424 158.4357
128.000000 69.346 158.5771
131.500000 69.225 159.2716
132.000000 69.209 159.3704
134.000000 69.117 159.6317
136.000000 69.070 159.9240
138.000000 69.084 160.0618
140.000000 69.087 160.0407
143.000000 69.067 160.4203
145.000000 69.085 160.0793
147.500000 69.012 159.3325
150.000000 68.908 158.9146
152.500000 68.855 158.5772
155.000000 68.789 158.3568
157.500000 68.723 158.3482
160.000000 68.653 158.2792
162.500000 68.587 158.1505
165.000000 68.542 157.6963
167.500000 68.483 157.1028
170.000000 68.375 157.4949
172.500000 68.261 157.9092
175.000000 68.177 157.9779
177.500000 68.109 157.9283
180.000000 68.040 157.8974
182.500000 67.963 158.0298
185.000000 67.876 158.2542
187.500000 67.801 158.4790
190.000000 67.754 158.7673
192.500000 67.716 158.9410
195.000000 67.662 158.9266
197.500000 67.605 158.9677
200.000000 67.549 159.1036
203.000000 67.486 159.2532
206.000000 67.427 159.3799
209.000000 67.379 159.4827
212.000000 67.329 159.6146
214.000000 67.288 159.7039
218.000000 67.200 159.7733
220.000000 67.162 159.8117
224.000000 67.097 159.9948
227.000000 67.030 160.1240
230.000000 66.959 160.2341
233.000000 66.906 160.3434
236.000000 66.861 160.4681
240.000000 66.800 160.7014
243.000000 66.749 160.8990
247.000000 66.690 161.1396
250.000000 66.648 161.3156
254.000000 66.577 161.5649
258.000000 66.515 161.8488
262.000000 66.465 162.1803
265.000000 66.421 162.3740
269.000000 66.351 162.5590
272.000000 66.303 162.7092
276.000000 66.244 162.9311
280.000000 66.185 163.1916
285.000000 66.112 163.5408
290.000000 66.045 163.9012
295.000000 65.985 164.3357
300.000000 65.923 164.7718
304.000000 65.871 165.1072
307.000000 65.837 165.3904
311.000000 65.803 165.7471
315.000000 65.780 166.0957
320.000000 65.752 166.5265
325.000000 65.716 166.9226
330.000000 65.676 167.2551
335.000000 65.642 167.5394
340.000000 65.607 167.7883
345.000000 65.581 168.0442
350.000000 65.554 168.3235
355.000000 65.510 168.5832
360.000000 65.472 168.8592
365.000000 65.436 169.1773
370.000000 65.396 169.4726
375.000000 65.362 169.7746
382.000000 65.318 170.2230
387.000000 65.286 170.4884
395.000000 65.233 170.9503
400.000000 65.199 171.2662
406.000000 65.161 171.6558
412.000000 65.127 172.0438
418.000000 65.093 172.4570
425.000000 65.056 172.9521
431.000000 65.020 173.3223
437.000000 64.984 173.7103
444.000000 64.950 174.1827
450.000000 64.927 174.5880
455.000000 64.909 174.9309
462.000000 64.879 175.3897
468.000000 64.850 175.7767
475.000000 64.822 176.2184
482.000000 64.801 176.6727
487.000000 64.786 177.0049
494.000000 64.762 177.4581
500.000000 64.743 177.8451
508.000000 64.719 178.3573
515.000000 64.697 178.8120
522.000000 64.676 179.2680
530.000000 64.655 179.7918
538.000000 64.642 -179.6985
545.000000 64.629 -179.2428
552.000000 64.615 -178.7665
560.000000 64.597 -178.2229
570.000000 64.582 -177.5762
580.000000 64.568 -176.9297
590.000000 64.553 -176.2724
600.000000 64.544 -175.6662
608.000000 64.538 -175.1832
615.000000 64.532 -174.7243
622.000000 64.527 -174.2581
630.000000 64.525 -173.7341
640.000000 64.528 -173.0892
650.000000 64.530 -172.4609
660.000000 64.532 -171.8405
670.000000 64.540 -171.2261
680.000000 64.553 -170.5867
690.000000 64.564 -169.9222
700.000000 64.574 -169.2527
710.000000 64.586 -168.5938
720.000000 64.601 -167.9434
730.000000 64.621 -167.3128
740.000000 64.641 -166.6801
750.000000 64.659 -166.0359
762.000000 64.690 -165.2920
775.000000 64.727 -164.4906
788.000000 64.766 -163.6784
800.000000 64.805 -162.9407
812.000000 64.843 -162.2098
825.000000 64.889 -161.4279
838.000000 64.943 -160.6423
850.000000 64.995 -159.9169
862.000000 65.053 -159.1974
875.000000 65.118 -158.4593
885.000000 65.170 -157.9021
900.000000 65.252 -157.0638
912.000000 65.326 -156.4331
925.000000 65.409 -155.7873
938.000000 65.496 -155.1481
950.000000 65.578 -154.5864
962.000000 65.660 -154.0834
975.000000 65.749 -153.5686
988.000000 65.837 -153.0205
1000.000000 65.929 -152.5026
1015.000000 66.057 -151.9263
1030.000000 66.189 -151.4621
1044.000000 66.312 -151.1175
1060.000000 66.446 -150.8069
1075.000000 66.560 -150.6068
1090.000000 66.659 -150.4273
1106.000000 66.751 -150.1434
1120.000000 66.840 -149.8013
1138.000000 66.981 -149.4007
1150.000000 67.081 -149.2174
1172.000000 67.257 -148.9984
1180.000000 67.317 -148.9423
1206.000000 67.502 -148.7938
1220.000000 67.596 -148.7247
1241.000000 67.731 -148.6321
1250.000000 67.788 -148.5965
1265.000000 67.883 -148.5361
1280.000000 67.978 -148.4595
1315.000000 68.190 -148.3162
1320.000000 68.218 -148.3045
1340.000000 68.332 -148.2668
1360.000000 68.448 -148.2359
1380.000000 68.565 -148.1986
1400.000000 68.677 -148.1453
1430.000000 68.833 -148.0644
1450.000000 68.936 -148.0210
1475.000000 69.066 -147.9902
1500.000000 69.195 -147.9785
1525.000000 69.316 -147.9553
1550.000000 69.433 -147.9421
1575.000000 69.551 -147.9436
1600.000000 69.668 -147.9579
1625.000000 69.779 -147.9759
1650.000000 69.888 -148.0144
1675.000000 69.998 -148.0755
1700.000000 70.110 -148.1576
1725.000000 70.219 -148.2405
1750.000000 70.328 -148.3262
1775.000000 70.438 -148.4335
1800.000000 70.550 -148.5707
1825.000000 70.666 -148.7224
1850.000000 70.782 -148.8836
1875.000000 70.898 -149.0726
1900.000000 71.014 -149.2838
1925.000000 71.132 -149.5097
1950.000000 71.252 -149.7621
1975.000000 71.371 -150.0512
2000.000000 71.490 -150.3723
2030.000000 71.633 -150.7766
2060.000000 71.777 -151.2146
2090.000000 71.919 -151.6956
2120.000000 72.060 -152.2142
2140.000000 72.153 -152.5842
2180.000000 72.334 -153.3882
2200.000000 72.422 -153.8130
2240.000000 72.593 -154.7182
2270.000000 72.717 -155.4430
2300.000000 72.836 -156.1969
2330.000000 72.950 -156.9900
2360.000000 73.057 -157.8249
2400.000000 73.189 -158.9807
2430.000000 73.279 -159.8689
2470.000000 73.387 -161.0893
2500.000000 73.459 -162.0332
2540.000000 73.544 -163.3150
2580.000000 73.616 -164.6106
2620.000000 73.674 -165.9022
2650.000000 73.710 -166.8697
2690.000000 73.748 -168.1720
2720.000000 73.771 -169.1514
2760.000000 73.793 -170.4409
2800.000000 73.805 -171.7210
2850.000000 73.806 -173.3182
2900.000000 73.791 -174.9088
2950.000000 73.765 -176.4524
3000.000000 73.728 -177.9681
3040.000000 73.691 -179.1777
3070.000000 73.656 179.9094
3110.000000 73.599 178.6996
3150.000000 73.531 177.5244
3200.000000 73.430 176.1153
3250.000000 73.315 174.8080
3300.000000 73.190 173.6073
3350.000000 73.059 172.5209
3400.000000 72.922 171.5477
3450.000000 72.784 170.6780
3500.000000 72.649 169.9028
3550.000000 72.515 169.1999
3600.000000 72.385 168.5689
3650.000000 72.260 167.9978
3700.000000 72.138 167.4827
3750.000000 72.014 167.0255
3820.000000 71.847 166.4291
3870.000000 71.733 166.0337
3950.000000 71.558 165.4622
4000.000000 71.451 165.1431
4060.000000 71.322 164.7868
4120.000000 71.197 164.4372
4180.000000 71.075 164.1104
4250.000000 70.936 163.7605
4310.000000 70.819 163.4657
4370.000000 70.702 163.1627
4440.000000 70.564 162.8105
4500.000000 70.445 162.5019
4550.000000 70.346 162.2522
4620.000000 70.205 161.9256
4680.000000 70.083 161.6484
4750.000000 69.943 161.3160
4820.000000 69.797 160.9888
4870.000000 69.689 160.7694
4940.000000 69.537 160.4609
5000.000000 69.404 160.1902
5080.000000 69.218 159.8432
5150.000000 69.050 159.5464
5220.000000 68.874 159.2585
5300.000000 68.661 158.9630
5380.000000 68.434 158.7366
5450.000000 68.226 158.6108
5520.000000 68.006 158.5621
5600.000000 67.740 158.6884
5700.000000 67.399 159.3578
5800.000000 67.143 160.5234
5900.000000 67.004 161.2067
6000.000000 66.823 161.2266
6080.000000 66.615 161.3279
6150.000000 66.415 161.6085
6220.000000 66.218 162.0480
6300.000000 66.000 162.7019
6400.000000 65.744 163.7213
6500.000000 65.508 164.9053
6600.000000 65.293 166.1948
6700.000000 65.101 167.5960
6800.000000 64.939 169.1053
6900.000000 64.804 170.6783
7000.000000 64.693 172.3013
7100.000000 64.615 173.9611
7200.000000 64.569 175.6447
7300.000000 64.552 177.3114
7400.000000 64.565 178.9268
7500.000000 64.615 -179.5155
7620.000000 64.724 -177.7430
7750.000000 64.894 -176.0373
7880.000000 65.114 -174.6399
8000.000000 65.363 -173.7084
8120.000000 65.654 -173.2284
8250.000000 66.000 -173.3020
8380.000000 66.354 -174.0479
8500.000000 66.669 -175.3971
8620.000000 66.952 -177.4047
8750.000000 67.203 179.7362
8850.000000 67.341 177.0987
9000.000000 67.436 172.4788
9120.000000 67.392 168.2933
9250.000000 67.201 163.4464
9380.000000 66.843 158.5510
9500.000000 66.354 154.2621
9620.000000 65.720 150.4652
9750.000000 64.894 147.1970
9880.000000 63.959 144.9914
10000.000000 63.033 143.9878
10150.000000 61.837 144.2252
10300.000000 60.649 146.1464
10440.000000 59.600 149.4558
10600.000000 58.559 154.9622
10750.000000 57.851 161.5322
10900.000000 57.533 168.6924
11060.000000 57.666 175.4666
11200.000000 58.045 179.3949
11380.000000 58.555 -178.8962
11500.000000 58.753 -179.3719
11720.000000 58.688 178.6430
11800.000000 58.549 178.0749
12060.000000 57.874 177.8817
12200.000000 57.457 178.8051
12410.000000 56.867 -178.8060
12500.000000 56.643 -177.4736
12650.000000 56.315 -174.9418
12800.000000 56.040 -172.1302
13150.000000 55.621 -164.9052
13200.000000 55.586 -163.8094
13400.000000 55.510 -159.3305
13600.000000 55.536 -154.7597
13800.000000 55.662 -150.1327
14000.000000 55.877 -145.4025
14300.000000 56.361 -138.0051
14500.000000 56.813 -133.3514
14750.000000 57.535 -128.3595
15000.000000 58.365 -123.9262
15250.000000 59.252 -119.5652
15500.000000 60.187 -116.5758
15750.000000 61.058 -116.1020
16000.000000 61.633 -117.5112
16250.000000 61.706 -118.8541
16500.000000 61.272 -118.9687
16750.000000 60.491 -117.0556
17000.000000 59.570 -112.9055
17250.000000 58.675 -107.0610
17500.000000 57.912 -100.4698
17750.000000 57.317 -94.3647
18000.000000 56.838 -90.5643
18250.000000 56.351 -90.4757
18500.000000 55.698 -93.4123
18750.000000 54.724 -97.9613
19000.000000 53.347 -103.1572
19250.000000 51.610 -108.1597
19500.000000 49.644 -111.6586
19750.000000 47.605 -113.0737
20000.000000 45.639 -112.7837
