* REW测量的测量数据V5.20.13
* 来源: 频率响应平均数据
* 格式: Averaged data produced from the rms magnitudes of L, L
* 日期: 2025-1-17 17:54:18
* REW 设置:
* C计权补偿: 关
*  目标电平: 75.0 dB
* 注释: Averaged data produced from the rms magnitudes of L, L
* 测量: 均方根平均值1
* 平滑: 1/24 倍频程
* 频率步进: 1/48 倍频程
* 起始频率: 2.200 Hz
*
* 频率(Hz) SPL(dB)
2.200000 98.017
2.240000 98.169
2.270000 98.282
2.300000 98.395
2.330000 98.509
2.360000 98.622
2.400000 98.774
2.430000 98.887
2.470000 99.038
2.500000 99.152
2.540000 99.303
2.580000 99.460
2.620000 99.634
2.650000 99.769
2.690000 99.955
2.720000 100.096
2.760000 100.282
2.800000 100.465
2.850000 100.681
2.900000 100.877
2.950000 101.047
3.000000 101.194
3.040000 101.298
3.070000 101.370
3.110000 101.459
3.150000 101.542
3.200000 101.642
3.250000 101.741
3.300000 101.843
3.350000 101.946
3.400000 102.046
3.450000 102.143
3.500000 102.237
3.550000 102.326
3.600000 102.412
3.650000 102.493
3.700000 102.568
3.750000 102.639
3.820000 102.729
3.870000 102.789
3.950000 102.880
4.000000 102.935
4.060000 102.999
4.120000 103.059
4.180000 103.116
4.250000 103.179
4.310000 103.231
4.370000 103.281
4.440000 103.340
4.500000 103.389
4.550000 103.428
4.620000 103.481
4.680000 103.525
4.750000 103.574
4.820000 103.621
4.870000 103.653
4.940000 103.696
5.000000 103.731
5.080000 103.776
5.150000 103.813
5.220000 103.850
5.300000 103.889
5.380000 103.925
5.450000 103.954
5.520000 103.980
5.600000 104.006
5.700000 104.034
5.800000 104.057
5.900000 104.076
6.000000 104.089
6.080000 104.097
6.150000 104.102
6.220000 104.105
6.300000 104.106
6.400000 104.104
6.500000 104.099
6.600000 104.093
6.700000 104.084
6.800000 104.074
6.900000 104.063
7.000000 104.051
7.100000 104.039
7.200000 104.026
7.300000 104.012
7.400000 103.998
7.500000 103.984
7.620000 103.966
7.750000 103.945
7.880000 103.922
8.000000 103.900
8.120000 103.876
8.250000 103.847
8.380000 103.817
8.500000 103.788
8.620000 103.757
8.750000 103.722
8.850000 103.695
9.000000 103.653
9.120000 103.619
9.250000 103.583
9.380000 103.546
9.500000 103.515
9.620000 103.486
9.750000 103.458
9.880000 103.435
10.000000 103.419
10.150000 103.407
10.300000 103.402
10.440000 103.404
10.600000 103.412
10.750000 103.423
10.900000 103.437
11.060000 103.450
11.200000 103.460
11.380000 103.470
11.500000 103.473
11.720000 103.470
11.800000 103.466
12.060000 103.443
12.200000 103.423
12.410000 103.383
12.500000 103.362
12.650000 103.323
12.800000 103.277
13.150000 103.144
13.200000 103.122
13.400000 103.029
13.600000 102.928
13.800000 102.818
14.000000 102.703
14.300000 102.522
14.500000 102.400
14.750000 102.247
15.000000 102.098
15.250000 101.956
15.500000 101.819
15.750000 101.690
16.000000 101.567
16.250000 101.450
16.500000 101.339
16.750000 101.234
17.000000 101.135
17.250000 101.044
17.500000 100.959
17.750000 100.881
18.000000 100.807
18.250000 100.737
18.500000 100.669
18.750000 100.603
19.000000 100.537
19.250000 100.472
19.500000 100.409
19.750000 100.349
20.000000 100.291
20.299999 100.224
20.600000 100.158
20.900000 100.093
21.200001 100.026
21.400000 99.980
21.799999 99.886
22.000000 99.838
22.400000 99.741
22.700001 99.670
23.000000 99.600
23.299999 99.531
23.600000 99.462
24.000000 99.371
24.299999 99.303
24.700001 99.211
25.000000 99.143
25.400000 99.055
25.799999 98.971
26.200001 98.888
26.500000 98.827
26.900000 98.745
27.200001 98.684
27.600000 98.603
28.000000 98.525
28.500000 98.435
29.000000 98.350
29.500000 98.269
30.000000 98.190
30.400000 98.129
30.700001 98.085
31.100000 98.029
31.500000 97.975
32.000000 97.909
32.500000 97.844
33.000000 97.781
33.500000 97.718
34.000000 97.654
34.500000 97.586
35.000000 97.518
35.500000 97.451
36.000000 97.389
36.500000 97.330
37.000000 97.273
37.500000 97.217
38.200001 97.141
38.700001 97.090
39.500000 97.013
40.000000 96.967
40.599998 96.910
41.200001 96.854
41.799999 96.802
42.500000 96.747
43.099998 96.702
43.700001 96.654
44.400002 96.593
45.000000 96.540
45.500000 96.496
46.200001 96.439
46.799999 96.391
47.500000 96.334
48.200001 96.276
48.700001 96.236
49.400002 96.181
50.000000 96.138
50.799999 96.079
51.500000 96.025
52.200001 95.968
53.000000 95.900
53.799999 95.831
54.500000 95.773
55.200001 95.718
56.000000 95.656
57.000000 95.577
58.000000 95.494
59.000000 95.408
60.000000 95.319
60.799999 95.251
61.500000 95.194
62.200001 95.137
63.000000 95.071
64.000000 94.983
65.000000 94.892
66.000000 94.801
67.000000 94.710
68.000000 94.621
69.000000 94.532
70.000000 94.445
71.000000 94.361
72.000000 94.282
73.000000 94.206
74.000000 94.129
75.000000 94.051
76.199997 93.955
77.500000 93.845
78.800003 93.736
80.000000 93.639
81.199997 93.546
82.500000 93.446
83.800003 93.348
85.000000 93.261
86.199997 93.175
87.500000 93.086
88.500000 93.020
90.000000 92.920
91.199997 92.837
92.500000 92.746
93.800003 92.655
95.000000 92.572
96.199997 92.496
97.500000 92.421
98.800003 92.348
100.000000 92.277
101.500000 92.181
103.000000 92.085
104.400002 91.998
106.000000 91.904
107.500000 91.823
109.000000 91.745
110.599998 91.658
112.000000 91.582
113.800003 91.488
115.000000 91.430
117.199997 91.330
118.000000 91.294
120.599998 91.168
122.000000 91.094
124.099998 90.978
125.000000 90.926
126.500000 90.840
128.000000 90.759
131.500000 90.591
132.000000 90.569
134.000000 90.473
136.000000 90.370
138.000000 90.279
140.000000 90.213
143.000000 90.122
145.000000 90.032
147.500000 89.904
150.000000 89.785
152.500000 89.681
155.000000 89.587
157.500000 89.502
160.000000 89.423
162.500000 89.337
165.000000 89.242
167.500000 89.153
170.000000 89.080
172.500000 89.015
175.000000 88.948
177.500000 88.875
180.000000 88.805
182.500000 88.747
185.000000 88.697
187.500000 88.644
190.000000 88.581
192.500000 88.514
195.000000 88.452
197.500000 88.394
200.000000 88.337
203.000000 88.272
206.000000 88.208
209.000000 88.147
212.000000 88.093
214.000000 88.061
218.000000 87.999
220.000000 87.968
224.000000 87.913
227.000000 87.879
230.000000 87.844
233.000000 87.803
236.000000 87.755
240.000000 87.697
243.000000 87.661
247.000000 87.615
250.000000 87.577
254.000000 87.525
258.000000 87.471
262.000000 87.422
265.000000 87.398
269.000000 87.377
272.000000 87.357
276.000000 87.324
280.000000 87.289
285.000000 87.248
290.000000 87.216
295.000000 87.189
300.000000 87.154
304.000000 87.123
307.000000 87.100
311.000000 87.072
315.000000 87.044
320.000000 87.004
325.000000 86.958
330.000000 86.914
335.000000 86.881
340.000000 86.855
345.000000 86.826
350.000000 86.791
355.000000 86.756
360.000000 86.721
365.000000 86.687
370.000000 86.654
375.000000 86.623
382.000000 86.575
387.000000 86.538
395.000000 86.492
400.000000 86.479
406.000000 86.488
412.000000 86.525
418.000000 86.582
425.000000 86.651
431.000000 86.694
437.000000 86.716
444.000000 86.714
450.000000 86.694
455.000000 86.670
462.000000 86.633
468.000000 86.602
475.000000 86.566
482.000000 86.532
487.000000 86.508
494.000000 86.474
500.000000 86.448
508.000000 86.419
515.000000 86.397
522.000000 86.377
530.000000 86.357
538.000000 86.342
545.000000 86.332
552.000000 86.320
560.000000 86.305
570.000000 86.286
580.000000 86.268
590.000000 86.248
600.000000 86.228
608.000000 86.215
615.000000 86.206
622.000000 86.197
630.000000 86.188
640.000000 86.179
650.000000 86.173
660.000000 86.168
670.000000 86.163
680.000000 86.157
690.000000 86.153
700.000000 86.154
710.000000 86.159
720.000000 86.163
730.000000 86.164
740.000000 86.165
750.000000 86.171
762.000000 86.184
775.000000 86.198
788.000000 86.209
800.000000 86.220
812.000000 86.233
825.000000 86.249
838.000000 86.268
850.000000 86.290
862.000000 86.311
875.000000 86.333
885.000000 86.348
900.000000 86.370
912.000000 86.387
925.000000 86.403
938.000000 86.417
950.000000 86.430
962.000000 86.444
975.000000 86.458
988.000000 86.471
1000.000000 86.483
1015.000000 86.497
1030.000000 86.510
1044.000000 86.521
1060.000000 86.538
1075.000000 86.556
1090.000000 86.580
1106.000000 86.616
1120.000000 86.657
1138.000000 86.719
1150.000000 86.768
1172.000000 86.881
1180.000000 86.930
1206.000000 87.116
1220.000000 87.229
1241.000000 87.409
1250.000000 87.488
1265.000000 87.623
1280.000000 87.762
1315.000000 88.090
1320.000000 88.135
1340.000000 88.315
1360.000000 88.489
1380.000000 88.657
1400.000000 88.817
1430.000000 89.043
1450.000000 89.185
1475.000000 89.354
1500.000000 89.511
1525.000000 89.653
1550.000000 89.787
1575.000000 89.913
1600.000000 90.033
1625.000000 90.147
1650.000000 90.257
1675.000000 90.365
1700.000000 90.468
1725.000000 90.567
1750.000000 90.663
1775.000000 90.758
1800.000000 90.856
1825.000000 90.956
1850.000000 91.056
1875.000000 91.154
1900.000000 91.254
1925.000000 91.356
1950.000000 91.459
1975.000000 91.563
2000.000000 91.665
2030.000000 91.788
2060.000000 91.913
2090.000000 92.039
2120.000000 92.169
2140.000000 92.256
2180.000000 92.434
2200.000000 92.522
2240.000000 92.699
2270.000000 92.831
2300.000000 92.964
2330.000000 93.097
2360.000000 93.230
2400.000000 93.408
2430.000000 93.541
2470.000000 93.717
2500.000000 93.848
2540.000000 94.021
2580.000000 94.191
2620.000000 94.357
2650.000000 94.480
2690.000000 94.639
2720.000000 94.755
2760.000000 94.904
2800.000000 95.044
2850.000000 95.207
2900.000000 95.358
2950.000000 95.493
3000.000000 95.610
3040.000000 95.691
3070.000000 95.744
3110.000000 95.807
3150.000000 95.862
3200.000000 95.922
3250.000000 95.973
3300.000000 96.016
3350.000000 96.048
3400.000000 96.067
3450.000000 96.071
3500.000000 96.057
3550.000000 96.028
3600.000000 95.984
3650.000000 95.927
3700.000000 95.858
3750.000000 95.779
3820.000000 95.658
3870.000000 95.568
3950.000000 95.423
4000.000000 95.335
4060.000000 95.234
4120.000000 95.139
4180.000000 95.049
4250.000000 94.945
4310.000000 94.857
4370.000000 94.769
4440.000000 94.670
4500.000000 94.586
4550.000000 94.517
4620.000000 94.419
4680.000000 94.335
4750.000000 94.237
4820.000000 94.137
4870.000000 94.065
4940.000000 93.960
5000.000000 93.868
5080.000000 93.739
5150.000000 93.620
5220.000000 93.496
5300.000000 93.348
5380.000000 93.194
5450.000000 93.055
5520.000000 92.914
5600.000000 92.748
5700.000000 92.532
5800.000000 92.305
5900.000000 92.066
6000.000000 91.811
6080.000000 91.591
6150.000000 91.389
6220.000000 91.178
6300.000000 90.927
6400.000000 90.601
6500.000000 90.266
6600.000000 89.929
6700.000000 89.601
6800.000000 89.299
6900.000000 89.034
7000.000000 88.819
7100.000000 88.666
7200.000000 88.582
7300.000000 88.566
7400.000000 88.614
7500.000000 88.721
7620.000000 88.917
7750.000000 89.193
7880.000000 89.514
8000.000000 89.837
8120.000000 90.173
8250.000000 90.532
8380.000000 90.869
8500.000000 91.147
8620.000000 91.388
8750.000000 91.598
8850.000000 91.719
9000.000000 91.827
9120.000000 91.845
9250.000000 91.793
9380.000000 91.662
9500.000000 91.459
9620.000000 91.159
9750.000000 90.701
9880.000000 90.091
10000.000000 89.396
10150.000000 88.387
10300.000000 87.296
10440.000000 86.274
10600.000000 85.171
10750.000000 84.232
10900.000000 83.391
11060.000000 82.592
11200.000000 81.966
11380.000000 81.248
11500.000000 80.819
11720.000000 80.125
11800.000000 79.900
12060.000000 79.268
12200.000000 78.983
12410.000000 78.630
12500.000000 78.508
12650.000000 78.345
12800.000000 78.233
13150.000000 78.236
13200.000000 78.274
13400.000000 78.533
13600.000000 78.959
13800.000000 79.513
14000.000000 80.131
14300.000000 81.069
14500.000000 81.677
14750.000000 82.399
15000.000000 83.023
15250.000000 83.437
15500.000000 83.519
15750.000000 83.188
16000.000000 82.448
16250.000000 81.384
16500.000000 80.133
16750.000000 78.830
17000.000000 77.575
17250.000000 76.425
17500.000000 75.418
17750.000000 74.580
18000.000000 73.919
18250.000000 73.435
18500.000000 73.140
18750.000000 73.045
19000.000000 73.137
19250.000000 73.369
19500.000000 73.650
19750.000000 73.845
20000.000000 73.810
20300.000000 73.314
20600.000000 72.249
20900.000000 70.673
21200.000000 68.769
21400.000000 67.435
21800.000000 64.875
22000.000000 63.711
22400.000000 61.658
22700.000000 60.354
23000.000000 59.235
23300.000000 58.288
23600.000000 57.504
24000.000000 56.687
24300.000000 56.230
24700.000000 55.827
25000.000000 55.682
25400.000000 55.701
25800.000000 55.988
26200.000000 56.576
26500.000000 57.225
26900.000000 58.417
27200.000000 59.564
27600.000000 61.126
28000.000000 62.103
28500.000000 61.759
29000.000000 59.529
29500.000000 56.049
30000.000000 52.847
30400.000000 51.520
30700.000000 51.154
31100.000000 50.905
31500.000000 50.487
32000.000000 49.549
32500.000000 48.354
33000.000000 47.307
33500.000000 46.667
34000.000000 46.370
34500.000000 46.262
35000.000000 46.256
35500.000000 46.362
36000.000000 46.612
36500.000000 46.945
37000.000000 47.286
37500.000000 47.552
38200.000000 47.669
38700.000000 47.588
39500.000000 47.459
40000.000000 47.442
40600.000000 47.453
41200.000000 47.545
41800.000000 47.743
42500.000000 48.036
43100.000000 48.255
43700.000000 48.280
44400.000000 47.839
45000.000000 47.001
45500.000000 46.004
46200.000000 44.156
46800.000000 42.249
47500.000000 40.417
