* REW测量的测量数据V5.20.13
* 来源: 麦克风 (Realtek High Definition Audio, MICROPHONE (主音), L, volume: no control
* 格式: 512k 对数扫频正弦, 1 扫频 at 0.0 dBFS 没有时间参考
* 日期: 2024-10-9 21:50:32
* REW 设置:
* C计权补偿: 关
*  目标电平: 75.0 dB
* 注释: ; 
* 测量: NiceHCK YD520 White Tips R
* 平滑: 1/24 倍频程
* 频率步进: 1/48 倍频程
* 起始频率: 20.300 Hz
*
* 频率(Hz) SPL(dB) 相位(角度)
20.299999 -12.272 -150.5996
20.600000 -12.251 -150.8323
20.900000 -12.209 -151.2445
21.200001 -12.174 -151.6243
21.400000 -12.156 -151.8529
21.799999 -12.128 -152.2699
22.000000 -12.116 -152.4671
22.400000 -12.095 -152.8532
22.700001 -12.081 -153.1532
23.000000 -12.069 -153.4774
23.299999 -12.060 -153.8317
23.600000 -12.055 -154.2166
24.000000 -12.054 -154.7648
24.299999 -12.058 -155.1817
24.700001 -12.066 -155.7203
25.000000 -12.071 -156.1040
25.400000 -12.072 -156.5883
25.799999 -12.067 -157.0439
26.200001 -12.055 -157.4781
26.500000 -12.042 -157.7997
26.900000 -12.022 -158.2353
27.200001 -12.008 -158.5699
27.600000 -11.996 -159.0163
28.000000 -11.991 -159.4382
28.500000 -11.991 -159.9055
29.000000 -11.988 -160.3348
29.500000 -11.978 -160.7885
30.000000 -11.967 -161.2902
30.400000 -11.961 -161.6962
30.700001 -11.957 -161.9814
31.100000 -11.951 -162.3233
31.500000 -11.942 -162.6320
32.000000 -11.927 -163.0100
32.500000 -11.915 -163.4040
33.000000 -11.914 -163.7961
33.500000 -11.919 -164.1646
34.000000 -11.923 -164.5258
34.500000 -11.924 -164.9159
35.000000 -11.924 -165.3398
35.500000 -11.927 -165.7630
36.000000 -11.930 -166.1511
36.500000 -11.930 -166.5018
37.000000 -11.929 -166.8327
37.500000 -11.927 -167.1521
38.200001 -11.926 -167.5800
38.700001 -11.925 -167.8827
39.500000 -11.923 -168.3805
40.000000 -11.924 -168.6777
40.599998 -11.926 -168.9970
41.200001 -11.925 -169.2985
41.799999 -11.924 -169.6219
42.500000 -11.929 -170.0302
43.099998 -11.937 -170.3676
43.700001 -11.944 -170.6694
44.400002 -11.947 -170.9908
45.000000 -11.945 -171.2655
45.500000 -11.944 -171.5038
46.200001 -11.947 -171.8542
46.799999 -11.953 -172.1670
47.500000 -11.963 -172.5133
48.200001 -11.969 -172.7863
48.700001 -11.965 -172.9468
49.400002 -11.949 -173.2140
50.000000 -11.943 -173.5250
50.799999 -11.964 -173.9420
51.500000 -11.994 -174.2017
52.200001 -12.015 -174.4293
53.000000 -12.031 -174.7509
53.799999 -12.052 -175.0757
54.500000 -12.066 -175.3213
55.200001 -12.075 -175.5768
56.000000 -12.084 -175.9096
57.000000 -12.095 -176.3333
58.000000 -12.102 -176.7278
59.000000 -12.113 -177.0729
60.000000 -12.133 -177.3420
60.799999 -12.151 -177.5412
61.500000 -12.168 -177.7419
62.200001 -12.186 -177.9648
63.000000 -12.204 -178.2232
64.000000 -12.219 -178.5383
65.000000 -12.233 -178.8135
66.000000 -12.244 -179.0402
67.000000 -12.253 -179.2813
68.000000 -12.268 -179.5570
69.000000 -12.288 -179.8480
70.000000 -12.310 179.8765
71.000000 -12.327 179.6193
72.000000 -12.344 179.3715
73.000000 -12.366 179.1743
74.000000 -12.387 179.0077
75.000000 -12.405 178.8030
76.199997 -12.424 178.5227
77.500000 -12.439 178.2370
78.800003 -12.456 177.9644
80.000000 -12.474 177.7230
81.199997 -12.488 177.4936
82.500000 -12.505 177.2933
83.800003 -12.528 177.1370
85.000000 -12.548 176.9361
86.199997 -12.568 176.6823
87.500000 -12.590 176.4321
88.500000 -12.607 176.2785
90.000000 -12.634 176.0327
91.199997 -12.657 175.7944
92.500000 -12.681 175.5521
93.800003 -12.706 175.3573
95.000000 -12.729 175.2052
96.199997 -12.752 175.0447
97.500000 -12.775 174.8738
98.800003 -12.795 174.7204
100.000000 -12.811 174.5793
101.500000 -12.828 174.3748
103.000000 -12.852 174.1245
104.400002 -12.883 173.9447
106.000000 -12.919 173.8054
107.500000 -12.947 173.6674
109.000000 -12.967 173.5110
110.599998 -12.988 173.3674
112.000000 -13.014 173.2310
113.800003 -13.055 173.0261
115.000000 -13.075 172.9131
117.199997 -13.100 172.7258
118.000000 -13.108 172.6368
120.599998 -13.149 172.3747
122.000000 -13.180 172.3167
124.099998 -13.220 172.2068
125.000000 -13.235 172.1489
126.500000 -13.261 172.0504
128.000000 -13.289 171.9462
131.500000 -13.356 171.7173
132.000000 -13.365 171.6850
134.000000 -13.395 171.5663
136.000000 -13.423 171.4616
138.000000 -13.454 171.3772
140.000000 -13.483 171.3099
143.000000 -13.536 171.0692
145.000000 -13.566 170.9981
147.500000 -13.598 171.0852
150.000000 -13.634 171.1401
152.500000 -13.664 170.9800
155.000000 -13.696 170.8097
157.500000 -13.735 170.7233
160.000000 -13.770 170.6700
162.500000 -13.799 170.6046
165.000000 -13.838 170.3214
167.500000 -13.893 169.8366
170.000000 -13.928 169.9711
172.500000 -13.958 170.2923
175.000000 -13.994 170.4009
177.500000 -14.033 170.4102
180.000000 -14.060 170.3897
182.500000 -14.075 170.3884
185.000000 -14.091 170.3495
187.500000 -14.113 170.3015
190.000000 -14.134 170.2873
192.500000 -14.157 170.2634
195.000000 -14.188 170.2622
197.500000 -14.214 170.2601
200.000000 -14.234 170.2010
203.000000 -14.263 170.0823
206.000000 -14.297 170.0062
209.000000 -14.326 169.9724
212.000000 -14.353 169.9504
214.000000 -14.374 169.9380
218.000000 -14.418 169.9153
220.000000 -14.440 169.8948
224.000000 -14.483 169.8182
227.000000 -14.516 169.7642
230.000000 -14.549 169.7401
233.000000 -14.580 169.7084
236.000000 -14.611 169.6800
240.000000 -14.651 169.7049
243.000000 -14.678 169.7280
247.000000 -14.717 169.6892
250.000000 -14.751 169.6412
254.000000 -14.802 169.6301
258.000000 -14.851 169.6252
262.000000 -14.896 169.6423
265.000000 -14.931 169.6453
269.000000 -14.982 169.5884
272.000000 -15.020 169.5667
276.000000 -15.074 169.5593
280.000000 -15.129 169.5709
285.000000 -15.202 169.6237
290.000000 -15.273 169.6897
295.000000 -15.343 169.8150
300.000000 -15.422 169.9200
304.000000 -15.499 170.0121
307.000000 -15.560 170.1457
311.000000 -15.648 170.4525
315.000000 -15.741 170.9354
320.000000 -15.838 171.7803
325.000000 -15.879 172.8524
330.000000 -15.839 173.8835
335.000000 -15.752 174.5198
340.000000 -15.675 174.7199
345.000000 -15.616 174.6823
350.000000 -15.586 174.5185
355.000000 -15.577 174.3248
360.000000 -15.580 174.1771
365.000000 -15.599 174.0860
370.000000 -15.628 174.0312
375.000000 -15.660 173.9979
382.000000 -15.701 173.9884
387.000000 -15.733 174.0437
395.000000 -15.794 174.1042
400.000000 -15.834 174.1544
406.000000 -15.877 174.2682
412.000000 -15.920 174.3856
418.000000 -15.962 174.4977
425.000000 -16.008 174.6308
431.000000 -16.046 174.7949
437.000000 -16.093 175.0068
444.000000 -16.147 175.2389
450.000000 -16.189 175.3892
455.000000 -16.224 175.5088
462.000000 -16.270 175.7468
468.000000 -16.309 176.0182
475.000000 -16.360 176.3322
482.000000 -16.411 176.6237
487.000000 -16.445 176.8557
494.000000 -16.492 177.1973
500.000000 -16.533 177.4666
508.000000 -16.590 177.8361
515.000000 -16.640 178.1991
522.000000 -16.690 178.5826
530.000000 -16.749 179.0669
538.000000 -16.798 179.6484
545.000000 -16.831 -179.7665
552.000000 -16.854 -179.1460
560.000000 -16.859 -178.4463
570.000000 -16.837 -177.7532
580.000000 -16.804 -177.3178
590.000000 -16.784 -177.0714
600.000000 -16.793 -176.8907
608.000000 -16.816 -176.7100
615.000000 -16.842 -176.5078
622.000000 -16.871 -176.2780
630.000000 -16.904 -175.9813
640.000000 -16.944 -175.5443
650.000000 -16.987 -175.0709
660.000000 -17.031 -174.5892
670.000000 -17.075 -174.0752
680.000000 -17.117 -173.5360
690.000000 -17.158 -172.9389
700.000000 -17.194 -172.3091
710.000000 -17.226 -171.6786
720.000000 -17.255 -171.0014
730.000000 -17.277 -170.2707
740.000000 -17.291 -169.5118
750.000000 -17.299 -168.7716
762.000000 -17.302 -167.9468
775.000000 -17.301 -167.0552
788.000000 -17.295 -166.1599
800.000000 -17.286 -165.3419
812.000000 -17.271 -164.5484
825.000000 -17.249 -163.6968
838.000000 -17.227 -162.8685
850.000000 -17.204 -162.1232
862.000000 -17.173 -161.3761
875.000000 -17.138 -160.5581
885.000000 -17.109 -159.9247
900.000000 -17.062 -159.0220
912.000000 -17.021 -158.3284
925.000000 -16.978 -157.5916
938.000000 -16.934 -156.8671
950.000000 -16.890 -156.2124
962.000000 -16.840 -155.5730
975.000000 -16.783 -154.8964
988.000000 -16.722 -154.2589
1000.000000 -16.664 -153.6891
1015.000000 -16.595 -152.9695
1030.000000 -16.521 -152.2858
1044.000000 -16.449 -151.6632
1060.000000 -16.368 -150.9599
1075.000000 -16.291 -150.3459
1090.000000 -16.211 -149.7520
1106.000000 -16.129 -149.1236
1120.000000 -16.055 -148.6018
1138.000000 -15.957 -147.9571
1150.000000 -15.892 -147.5441
1172.000000 -15.774 -146.8207
1180.000000 -15.730 -146.5646
1206.000000 -15.590 -145.7441
1220.000000 -15.515 -145.3069
1241.000000 -15.399 -144.6748
1250.000000 -15.350 -144.4131
1265.000000 -15.269 -143.9795
1280.000000 -15.187 -143.5440
1315.000000 -14.999 -142.4996
1320.000000 -14.973 -142.3500
1340.000000 -14.871 -141.7568
1360.000000 -14.768 -141.1814
1380.000000 -14.661 -140.6201
1400.000000 -14.556 -140.0504
1430.000000 -14.405 -139.1795
1450.000000 -14.302 -138.5984
1475.000000 -14.172 -137.8557
1500.000000 -14.046 -137.1158
1525.000000 -13.925 -136.3450
1550.000000 -13.800 -135.5621
1575.000000 -13.670 -134.7758
1600.000000 -13.539 -133.9679
1625.000000 -13.406 -133.1405
1650.000000 -13.270 -132.3046
1675.000000 -13.127 -131.4476
1700.000000 -12.976 -130.5725
1725.000000 -12.818 -129.6919
1750.000000 -12.650 -128.8049
1775.000000 -12.470 -127.9124
1800.000000 -12.280 -127.0254
1825.000000 -12.076 -126.1385
1850.000000 -11.855 -125.2688
1875.000000 -11.614 -124.4423
1900.000000 -11.355 -123.6673
1925.000000 -11.078 -122.9521
1950.000000 -10.786 -122.3242
1975.000000 -10.476 -121.8069
2000.000000 -10.154 -121.4234
2030.000000 -9.757 -121.1714
2060.000000 -9.351 -121.1460
2090.000000 -8.944 -121.3413
2120.000000 -8.543 -121.7554
2140.000000 -8.280 -122.1389
2180.000000 -7.773 -123.1331
2200.000000 -7.529 -123.7259
2240.000000 -7.060 -125.0761
2270.000000 -6.723 -126.2111
2300.000000 -6.398 -127.4494
2330.000000 -6.088 -128.7866
2360.000000 -5.790 -130.2252
2400.000000 -5.415 -132.2849
2430.000000 -5.148 -133.9311
2470.000000 -4.812 -136.2787
2500.000000 -4.580 -138.1579
2540.000000 -4.300 -140.8156
2580.000000 -4.058 -143.6279
2620.000000 -3.859 -146.5579
2650.000000 -3.740 -148.8101
2690.000000 -3.623 -151.8577
2720.000000 -3.567 -154.1452
2760.000000 -3.534 -157.1557
2800.000000 -3.547 -160.0797
2850.000000 -3.624 -163.5385
2900.000000 -3.755 -166.7043
2950.000000 -3.927 -169.5301
3000.000000 -4.129 -172.0210
3040.000000 -4.308 -173.7664
3070.000000 -4.448 -174.9315
3110.000000 -4.637 -176.2987
3150.000000 -4.825 -177.4644
3200.000000 -5.059 -178.6666
3250.000000 -5.282 -179.6200
3300.000000 -5.491 179.6556
3350.000000 -5.681 179.1398
3400.000000 -5.854 178.8004
3450.000000 -6.008 178.6106
3500.000000 -6.138 178.5374
3550.000000 -6.244 178.5644
3600.000000 -6.327 178.6842
3650.000000 -6.389 178.8643
3700.000000 -6.426 179.0869
3750.000000 -6.438 179.3421
3820.000000 -6.418 179.7225
3870.000000 -6.373 179.9787
3950.000000 -6.245 -179.6924
4000.000000 -6.133 -179.5639
4060.000000 -5.965 -179.5234
4120.000000 -5.760 -179.6618
4180.000000 -5.520 179.9544
4250.000000 -5.197 179.1332
4310.000000 -4.890 178.0400
4370.000000 -4.563 176.4916
4440.000000 -4.172 174.0069
4500.000000 -3.848 171.2255
4550.000000 -3.603 168.4095
4620.000000 -3.329 163.6849
4680.000000 -3.191 158.9682
4750.000000 -3.182 152.8959
4820.000000 -3.363 146.5704
4870.000000 -3.614 142.1350
4940.000000 -4.124 136.3656
5000.000000 -4.685 132.0618
5080.000000 -5.553 127.4717
5150.000000 -6.375 124.5456
5220.000000 -7.214 122.5583
5300.000000 -8.151 121.2800
5380.000000 -9.038 120.8366
5450.000000 -9.759 120.9550
5520.000000 -10.429 121.4074
5600.000000 -11.141 122.2018
5700.000000 -11.966 123.4998
5800.000000 -12.734 125.0898
5900.000000 -13.451 126.9459
6000.000000 -14.119 129.0881
6080.000000 -14.619 131.0139
6150.000000 -15.027 132.8163
6220.000000 -15.409 134.7009
6300.000000 -15.813 136.9557
6400.000000 -16.275 139.9153
6500.000000 -16.694 142.9554
6600.000000 -17.077 146.0652
6700.000000 -17.426 149.3386
6800.000000 -17.735 152.8453
6900.000000 -17.995 156.5945
7000.000000 -18.190 160.5414
7100.000000 -18.303 164.6226
7200.000000 -18.329 168.7313
7300.000000 -18.273 172.7676
7400.000000 -18.139 176.6591
7500.000000 -17.925 -179.6526
7620.000000 -17.559 -175.5834
7750.000000 -17.047 -171.7377
7880.000000 -16.430 -168.5543
8000.000000 -15.759 -166.3029
8120.000000 -14.980 -164.8712
8250.000000 -14.017 -164.5339
8380.000000 -12.948 -165.8891
8500.000000 -11.912 -169.2403
8620.000000 -10.939 -175.3135
8750.000000 -10.195 174.6524
8850.000000 -10.018 165.0510
9000.000000 -10.549 150.3936
9120.000000 -11.571 140.9753
9250.000000 -13.022 134.3068
9380.000000 -14.568 130.9256
9500.000000 -15.934 129.9161
9620.000000 -17.189 130.2733
9750.000000 -18.414 131.7177
9880.000000 -19.512 133.9477
10000.000000 -20.423 136.5308
10150.000000 -21.434 140.2971
10300.000000 -22.319 144.4894
10440.000000 -23.042 148.6786
10600.000000 -23.751 153.6704
10750.000000 -24.309 158.4623
10900.000000 -24.776 163.2661
11060.000000 -25.192 168.3535
11200.000000 -25.494 172.7147
11380.000000 -25.820 178.1266
11500.000000 -26.025 -178.3244
11720.000000 -26.404 -171.1111
11800.000000 -26.492 -168.0310
12060.000000 -26.344 -158.5727
12200.000000 -26.203 -154.4671
12410.000000 -25.983 -148.1312
12500.000000 -25.841 -145.2704
12650.000000 -25.513 -140.4476
12800.000000 -25.056 -135.6831
13150.000000 -23.429 -125.6036
13200.000000 -23.126 -124.3692
13400.000000 -21.714 -120.2492
13600.000000 -19.963 -118.1723
13800.000000 -17.956 -119.6441
14000.000000 -16.046 -126.6386
14300.000000 -14.613 -148.1599
14500.000000 -15.101 -163.7038
14750.000000 -16.903 -175.1908
15000.000000 -19.028 -176.7124
15250.000000 -20.791 -171.3762
15500.000000 -22.011 -162.8320
15750.000000 -22.693 -153.1433
16000.000000 -22.876 -142.6003
16250.000000 -22.584 -131.3086
16500.000000 -21.804 -121.3565
16750.000000 -20.664 -115.4659
17000.000000 -19.620 -115.7993
17250.000000 -19.300 -121.8776
17500.000000 -20.027 -128.7605
17750.000000 -21.548 -131.3665
18000.000000 -23.254 -129.6870
18250.000000 -24.573 -126.6611
18500.000000 -25.117 -124.3532
18750.000000 -24.733 -125.8642
19000.000000 -23.887 -136.9373
19250.000000 -23.725 -160.5667
19500.000000 -25.146 172.0804
19750.000000 -28.072 153.1802
20000.000000 -31.611 144.2933
