* REW测量的测量数据V5.20.13
* 来源: 麦克风 (Realtek High Definition Audio, MICROPHONE (主音), L, volume: no control
* 格式: 512k 对数扫频正弦, 1 扫频 at 0.0 dBFS 没有时间参考
* 日期: 2024-10-9 19:51:06
* REW 设置:
* C计权补偿: 关
*  目标电平: 75.0 dB
* 注释: ; 
* 测量: NICEHCK YD520 Black Tips R
* 平滑: 1/24 倍频程
* 频率步进: 1/48 倍频程
* 起始频率: 20.300 Hz
*
* 频率(Hz) SPL(dB) 相位(角度)
20.299999 -14.275 -149.6906
20.600000 -14.258 -149.9619
20.900000 -14.224 -150.4324
21.200001 -14.197 -150.8388
21.400000 -14.181 -151.0690
21.799999 -14.151 -151.4702
22.000000 -14.136 -151.6600
22.400000 -14.103 -152.0463
22.700001 -14.081 -152.3595
23.000000 -14.064 -152.6987
23.299999 -14.052 -153.0568
23.600000 -14.047 -153.4264
24.000000 -14.047 -153.9238
24.299999 -14.050 -154.2908
24.700001 -14.055 -154.7689
25.000000 -14.056 -155.1235
25.400000 -14.055 -155.5939
25.799999 -14.049 -156.0513
26.200001 -14.037 -156.4866
26.500000 -14.024 -156.8047
26.900000 -14.001 -157.2351
27.200001 -13.984 -157.5722
27.600000 -13.965 -158.0368
28.000000 -13.955 -158.4906
28.500000 -13.949 -158.9983
29.000000 -13.942 -159.4460
29.500000 -13.929 -159.8911
30.000000 -13.914 -160.3699
30.400000 -13.905 -160.7590
30.700001 -13.900 -161.0365
31.100000 -13.895 -161.3752
31.500000 -13.889 -161.6855
32.000000 -13.880 -162.0640
32.500000 -13.875 -162.4530
33.000000 -13.877 -162.8401
33.500000 -13.884 -163.2084
34.000000 -13.888 -163.5656
34.500000 -13.889 -163.9340
35.000000 -13.888 -164.3205
35.500000 -13.886 -164.7097
36.000000 -13.885 -165.0801
36.500000 -13.884 -165.4189
37.000000 -13.881 -165.7281
37.500000 -13.876 -166.0246
38.200001 -13.870 -166.4632
38.700001 -13.870 -166.8000
39.500000 -13.881 -167.3019
40.000000 -13.884 -167.5688
40.599998 -13.877 -167.8933
41.200001 -13.867 -168.2769
41.799999 -13.868 -168.6723
42.500000 -13.878 -169.0401
43.099998 -13.882 -169.2951
43.700001 -13.879 -169.5796
44.400002 -13.877 -169.9563
45.000000 -13.874 -170.2691
45.500000 -13.870 -170.5179
46.200001 -13.866 -170.8483
46.799999 -13.873 -171.0825
47.500000 -13.890 -171.3212
48.200001 -13.925 -171.6245
48.700001 -13.964 -171.8572
49.400002 -14.022 -172.0679
50.000000 -14.035 -172.1579
50.799999 -13.992 -172.4268
51.500000 -13.948 -172.8568
52.200001 -13.932 -173.2434
53.000000 -13.938 -173.5171
53.799999 -13.959 -173.7586
54.500000 -13.983 -174.0068
55.200001 -14.001 -174.2778
56.000000 -14.007 -174.6175
57.000000 -14.007 -175.0381
58.000000 -14.012 -175.3860
59.000000 -14.025 -175.7380
60.000000 -14.052 -176.0886
60.799999 -14.075 -176.3040
61.500000 -14.092 -176.4671
62.200001 -14.109 -176.6249
63.000000 -14.128 -176.7965
64.000000 -14.145 -177.0378
65.000000 -14.161 -177.2964
66.000000 -14.171 -177.5292
67.000000 -14.180 -177.8134
68.000000 -14.198 -178.1231
69.000000 -14.213 -178.3958
70.000000 -14.223 -178.6415
71.000000 -14.230 -178.8457
72.000000 -14.238 -179.0334
73.000000 -14.257 -179.2410
74.000000 -14.286 -179.4407
75.000000 -14.313 -179.6231
76.199997 -14.331 -179.8466
77.500000 -14.341 179.8703
78.800003 -14.361 179.5677
80.000000 -14.384 179.3099
81.199997 -14.404 179.1010
82.500000 -14.424 178.9556
83.800003 -14.446 178.8258
85.000000 -14.471 178.6498
86.199997 -14.494 178.4474
87.500000 -14.514 178.2562
88.500000 -14.530 178.1671
90.000000 -14.549 178.0332
91.199997 -14.563 177.8699
92.500000 -14.576 177.6587
93.800003 -14.598 177.4583
95.000000 -14.629 177.3468
96.199997 -14.649 177.2649
97.500000 -14.651 177.0722
98.800003 -14.657 176.8600
100.000000 -14.668 176.7178
101.500000 -14.689 176.5397
103.000000 -14.714 176.3563
104.400002 -14.738 176.1802
106.000000 -14.771 175.9768
107.500000 -14.796 175.8167
109.000000 -14.810 175.7017
110.599998 -14.832 175.6118
112.000000 -14.860 175.4900
113.800003 -14.890 175.2818
115.000000 -14.903 175.1811
117.199997 -14.921 175.1175
118.000000 -14.928 175.1238
120.599998 -14.960 175.0689
122.000000 -14.996 174.8526
124.099998 -15.041 174.5524
125.000000 -15.052 174.4909
126.500000 -15.073 174.4447
128.000000 -15.098 174.4174
131.500000 -15.150 174.2152
132.000000 -15.158 174.1864
134.000000 -15.186 174.1061
136.000000 -15.210 174.0635
138.000000 -15.232 174.0519
140.000000 -15.256 174.0282
143.000000 -15.306 173.9063
145.000000 -15.333 173.8034
147.500000 -15.371 173.7272
150.000000 -15.412 173.5913
152.500000 -15.423 173.6386
155.000000 -15.441 173.6212
157.500000 -15.466 173.5779
160.000000 -15.493 173.6110
162.500000 -15.517 173.5844
165.000000 -15.547 173.4723
167.500000 -15.581 173.3274
170.000000 -15.604 173.3395
172.500000 -15.625 173.3823
175.000000 -15.650 173.3982
177.500000 -15.671 173.3853
180.000000 -15.691 173.3369
182.500000 -15.712 173.3028
185.000000 -15.734 173.2748
187.500000 -15.758 173.2371
190.000000 -15.781 173.2255
192.500000 -15.804 173.2068
195.000000 -15.828 173.1727
197.500000 -15.850 173.1453
200.000000 -15.864 173.0989
203.000000 -15.885 173.0446
206.000000 -15.913 173.0315
209.000000 -15.941 172.9720
212.000000 -15.973 172.8934
214.000000 -15.997 172.8564
218.000000 -16.037 172.8869
220.000000 -16.053 172.9055
224.000000 -16.079 172.8617
227.000000 -16.099 172.8301
230.000000 -16.124 172.8172
233.000000 -16.152 172.8040
236.000000 -16.179 172.7802
240.000000 -16.211 172.7775
243.000000 -16.238 172.7832
247.000000 -16.277 172.8162
250.000000 -16.304 172.8358
254.000000 -16.344 172.7320
258.000000 -16.392 172.6280
262.000000 -16.445 172.5970
265.000000 -16.485 172.5599
269.000000 -16.538 172.5042
272.000000 -16.584 172.4932
276.000000 -16.650 172.4981
280.000000 -16.727 172.5207
285.000000 -16.852 172.6453
290.000000 -17.003 173.0916
295.000000 -17.133 174.0790
300.000000 -17.183 175.6155
304.000000 -17.122 176.7713
307.000000 -17.031 177.3239
311.000000 -16.909 177.6470
315.000000 -16.818 177.6622
320.000000 -16.752 177.4162
325.000000 -16.730 177.1040
330.000000 -16.733 176.8922
335.000000 -16.747 176.7823
340.000000 -16.759 176.6122
345.000000 -16.784 176.4313
350.000000 -16.817 176.3920
355.000000 -16.839 176.3914
360.000000 -16.858 176.3821
365.000000 -16.886 176.4076
370.000000 -16.918 176.4693
375.000000 -16.952 176.5360
382.000000 -16.992 176.6302
387.000000 -17.021 176.7226
395.000000 -17.070 176.8340
400.000000 -17.098 176.9083
406.000000 -17.133 177.0396
412.000000 -17.169 177.1945
418.000000 -17.201 177.3271
425.000000 -17.238 177.4911
431.000000 -17.265 177.6893
437.000000 -17.298 177.8829
444.000000 -17.340 178.0688
450.000000 -17.374 178.2327
455.000000 -17.405 178.4073
462.000000 -17.445 178.6676
468.000000 -17.471 178.8827
475.000000 -17.508 179.1275
482.000000 -17.550 179.3600
487.000000 -17.579 179.5516
494.000000 -17.612 179.8490
500.000000 -17.639 -179.8883
508.000000 -17.677 -179.5676
515.000000 -17.710 -179.2710
522.000000 -17.747 -178.9299
530.000000 -17.790 -178.5144
538.000000 -17.833 -178.0696
545.000000 -17.871 -177.6486
552.000000 -17.902 -177.1624
560.000000 -17.922 -176.5288
570.000000 -17.922 -175.7131
580.000000 -17.888 -175.1032
590.000000 -17.844 -174.8210
600.000000 -17.820 -174.6673
608.000000 -17.823 -174.5339
615.000000 -17.839 -174.3867
622.000000 -17.863 -174.2183
630.000000 -17.891 -173.9957
640.000000 -17.924 -173.6463
650.000000 -17.961 -173.2403
660.000000 -17.994 -172.8272
670.000000 -18.031 -172.4005
680.000000 -18.069 -171.9631
690.000000 -18.104 -171.4807
700.000000 -18.135 -170.9375
710.000000 -18.163 -170.3622
720.000000 -18.190 -169.7322
730.000000 -18.209 -169.0759
740.000000 -18.219 -168.4055
750.000000 -18.223 -167.7223
762.000000 -18.225 -166.9338
775.000000 -18.221 -166.0820
788.000000 -18.213 -165.2262
800.000000 -18.203 -164.4536
812.000000 -18.181 -163.7040
825.000000 -18.151 -162.9125
838.000000 -18.128 -162.1379
850.000000 -18.102 -161.4128
862.000000 -18.066 -160.6838
875.000000 -18.027 -159.9209
885.000000 -17.996 -159.3424
900.000000 -17.946 -158.5084
912.000000 -17.902 -157.8515
925.000000 -17.850 -157.1792
938.000000 -17.798 -156.5291
950.000000 -17.749 -155.9230
962.000000 -17.697 -155.3273
975.000000 -17.636 -154.7080
988.000000 -17.570 -154.1163
1000.000000 -17.511 -153.5817
1015.000000 -17.441 -152.9314
1030.000000 -17.365 -152.2980
1044.000000 -17.292 -151.7235
1060.000000 -17.210 -151.1044
1075.000000 -17.132 -150.5597
1090.000000 -17.048 -150.0259
1106.000000 -16.958 -149.4651
1120.000000 -16.882 -148.9860
1138.000000 -16.780 -148.4338
1150.000000 -16.713 -148.0826
1172.000000 -16.592 -147.4352
1180.000000 -16.547 -147.2036
1206.000000 -16.400 -146.4711
1220.000000 -16.323 -146.0907
1241.000000 -16.204 -145.5120
1250.000000 -16.153 -145.2735
1265.000000 -16.071 -144.8921
1280.000000 -15.989 -144.5153
1315.000000 -15.796 -143.6085
1320.000000 -15.769 -143.4801
1340.000000 -15.662 -142.9842
1360.000000 -15.555 -142.4858
1380.000000 -15.447 -141.9833
1400.000000 -15.341 -141.4865
1430.000000 -15.187 -140.7102
1450.000000 -15.083 -140.1800
1475.000000 -14.946 -139.5161
1500.000000 -14.815 -138.8683
1525.000000 -14.688 -138.1940
1550.000000 -14.559 -137.4833
1575.000000 -14.424 -136.7581
1600.000000 -14.287 -136.0273
1625.000000 -14.151 -135.3042
1650.000000 -14.009 -134.5571
1675.000000 -13.860 -133.7740
1700.000000 -13.703 -132.9855
1725.000000 -13.536 -132.1973
1750.000000 -13.362 -131.3975
1775.000000 -13.177 -130.6020
1800.000000 -12.978 -129.8279
1825.000000 -12.764 -129.0499
1850.000000 -12.534 -128.2767
1875.000000 -12.287 -127.5591
1900.000000 -12.020 -126.9107
1925.000000 -11.736 -126.3330
1950.000000 -11.435 -125.8485
1975.000000 -11.119 -125.4754
2000.000000 -10.791 -125.2388
2030.000000 -10.387 -125.1623
2060.000000 -9.975 -125.3211
2090.000000 -9.563 -125.7137
2120.000000 -9.159 -126.3463
2140.000000 -8.895 -126.8811
2180.000000 -8.389 -128.1711
2200.000000 -8.147 -128.9153
2240.000000 -7.683 -130.5830
2270.000000 -7.353 -131.9643
2300.000000 -7.039 -133.4546
2330.000000 -6.743 -135.0525
2360.000000 -6.464 -136.7471
2400.000000 -6.123 -139.1422
2430.000000 -5.889 -141.0264
2470.000000 -5.609 -143.6381
2500.000000 -5.425 -145.6496
2540.000000 -5.218 -148.3593
2580.000000 -5.049 -151.0222
2620.000000 -4.905 -153.5757
2650.000000 -4.801 -155.4347
2690.000000 -4.656 -157.9705
2720.000000 -4.548 -160.0163
2760.000000 -4.435 -163.0020
2800.000000 -4.385 -166.1937
2850.000000 -4.426 -170.1532
2900.000000 -4.559 -173.7684
2950.000000 -4.749 -176.8936
3000.000000 -4.969 -179.5667
3040.000000 -5.158 178.5974
3070.000000 -5.302 177.3834
3110.000000 -5.491 175.9617
3150.000000 -5.673 174.7465
3200.000000 -5.888 173.4697
3250.000000 -6.085 172.4095
3300.000000 -6.260 171.5338
3350.000000 -6.412 170.8165
3400.000000 -6.543 170.2264
3450.000000 -6.649 169.7193
3500.000000 -6.730 169.2498
3550.000000 -6.785 168.7772
3600.000000 -6.821 168.2683
3650.000000 -6.850 167.7006
3700.000000 -6.877 167.0992
3750.000000 -6.909 166.5355
3820.000000 -6.950 166.0009
3870.000000 -6.946 165.8384
3950.000000 -6.827 165.7005
4000.000000 -6.677 165.4426
4060.000000 -6.439 164.7470
4120.000000 -6.156 163.5112
4180.000000 -5.846 161.6409
4250.000000 -5.485 158.5645
4310.000000 -5.209 155.1389
4370.000000 -4.994 150.9761
4440.000000 -4.869 145.2987
4500.000000 -4.898 139.9974
4550.000000 -5.024 135.4679
4620.000000 -5.347 129.1699
4680.000000 -5.754 123.9755
4750.000000 -6.371 118.3640
4820.000000 -7.122 113.4730
4870.000000 -7.724 110.5289
4940.000000 -8.625 107.2306
5000.000000 -9.422 105.1434
5080.000000 -10.488 103.3161
5150.000000 -11.400 102.4749
5220.000000 -12.281 102.2155
5300.000000 -13.239 102.5002
5380.000000 -14.144 103.2854
5450.000000 -14.891 104.2996
5520.000000 -15.597 105.5600
5600.000000 -16.362 107.2541
5700.000000 -17.257 109.6896
5800.000000 -18.091 112.4023
5900.000000 -18.864 115.3458
6000.000000 -19.574 118.5295
6080.000000 -20.102 121.2280
6150.000000 -20.536 123.6633
6220.000000 -20.944 126.1509
6300.000000 -21.378 129.0542
6400.000000 -21.878 132.7598
6500.000000 -22.334 136.5089
6600.000000 -22.753 140.2806
6700.000000 -23.141 144.1151
6800.000000 -23.497 148.0810
6900.000000 -23.820 152.1873
7000.000000 -24.103 156.4065
7100.000000 -24.336 160.6881
7200.000000 -24.520 164.9859
7300.000000 -24.666 169.3343
7400.000000 -24.773 173.7491
7500.000000 -24.833 178.1987
7620.000000 -24.830 -176.4631
7750.000000 -24.741 -170.7905
7880.000000 -24.580 -165.2752
8000.000000 -24.370 -160.3659
8120.000000 -24.097 -155.6241
8250.000000 -23.731 -150.6698
8380.000000 -23.290 -145.9251
8500.000000 -22.813 -141.7496
8620.000000 -22.259 -137.8186
8750.000000 -21.565 -133.8792
8850.000000 -20.958 -131.1082
9000.000000 -19.904 -127.5247
9120.000000 -18.922 -125.3465
9250.000000 -17.705 -123.9295
9380.000000 -16.315 -123.9220
9500.000000 -14.900 -125.7699
9620.000000 -13.441 -130.2030
9750.000000 -12.024 -138.9064
9880.000000 -11.096 -151.8515
10000.000000 -10.912 -165.9469
10150.000000 -11.636 177.8773
10300.000000 -13.096 166.8841
10440.000000 -14.690 161.5375
10600.000000 -16.406 159.4963
10750.000000 -17.768 159.9358
10900.000000 -18.879 161.6451
11060.000000 -19.822 164.1918
11200.000000 -20.481 166.6751
11380.000000 -21.158 169.8779
11500.000000 -21.542 171.9744
11720.000000 -22.191 176.3271
11800.000000 -22.385 178.3425
12060.000000 -22.557 -174.9579
12200.000000 -22.501 -172.1665
12410.000000 -22.322 -168.0055
12500.000000 -22.160 -166.1810
12650.000000 -21.726 -163.3453
12800.000000 -21.064 -161.1811
13150.000000 -18.729 -162.4146
13200.000000 -18.355 -163.7829
13400.000000 -17.072 -173.4562
13600.000000 -16.604 170.8938
13800.000000 -17.312 154.4093
14000.000000 -19.007 143.1758
14300.000000 -22.240 138.6394
14500.000000 -24.232 140.8699
14750.000000 -26.287 146.6154
15000.000000 -27.898 154.7552
15250.000000 -29.164 165.1700
15500.000000 -30.116 176.6674
15750.000000 -30.741 -171.6633
16000.000000 -31.060 -159.5540
16250.000000 -31.091 -146.5055
16500.000000 -30.793 -134.0181
16750.000000 -30.175 -123.9988
17000.000000 -29.419 -118.0174
17250.000000 -28.909 -117.2193
17500.000000 -29.081 -120.4870
17750.000000 -30.132 -124.0126
18000.000000 -31.891 -124.8845
18250.000000 -33.957 -122.9873
18500.000000 -35.937 -118.6284
18750.000000 -37.586 -112.6063
19000.000000 -38.793 -106.5227
19250.000000 -39.521 -101.7761
19500.000000 -39.667 -98.2880
19750.000000 -39.036 -96.0728
20000.000000 -37.507 -95.9604
