* REW测量的测量数据V5.20.13
* 来源: 麦克风 (Realtek High Definition Audio, MICROPHONE (主音), L, volume: no control
* 格式: 512k 对数扫频正弦, 1 扫频 at 0.0 dBFS 没有时间参考
* 日期: 2024-10-9 19:49:00
* REW 设置:
* C计权补偿: 关
*  目标电平: 75.0 dB
* 注释: ; 
* 测量: NICEHCK YD520 White Tips L
* 平滑: 1/24 倍频程
* 频率步进: 1/48 倍频程
* 起始频率: 20.300 Hz
*
* 频率(Hz) SPL(dB) 相位(角度)
20.299999 -14.817 -152.0799
20.600000 -14.804 -152.2956
20.900000 -14.778 -152.6759
21.200001 -14.759 -153.0246
21.400000 -14.749 -153.2408
21.799999 -14.735 -153.6606
22.000000 -14.729 -153.8726
22.400000 -14.721 -154.2993
22.700001 -14.717 -154.6176
23.000000 -14.713 -154.9325
23.299999 -14.706 -155.2507
23.600000 -14.697 -155.5852
24.000000 -14.682 -156.0727
24.299999 -14.674 -156.4677
24.700001 -14.669 -157.0112
25.000000 -14.671 -157.4080
25.400000 -14.679 -157.8919
25.799999 -14.688 -158.3027
26.200001 -14.690 -158.6538
26.500000 -14.685 -158.9067
26.900000 -14.671 -159.2684
27.200001 -14.659 -159.5715
27.600000 -14.648 -160.0080
28.000000 -14.642 -160.4437
28.500000 -14.639 -160.9432
29.000000 -14.630 -161.4147
29.500000 -14.613 -161.9193
30.000000 -14.599 -162.4649
30.400000 -14.594 -162.8857
30.700001 -14.593 -163.1666
31.100000 -14.591 -163.4858
31.500000 -14.586 -163.7590
32.000000 -14.579 -164.0788
32.500000 -14.577 -164.3945
33.000000 -14.583 -164.6904
33.500000 -14.592 -164.9673
34.000000 -14.597 -165.2686
34.500000 -14.602 -165.6291
35.000000 -14.611 -166.0266
35.500000 -14.620 -166.4074
36.000000 -14.624 -166.7514
36.500000 -14.620 -167.0810
37.000000 -14.615 -167.4130
37.500000 -14.614 -167.7276
38.200001 -14.617 -168.0998
38.700001 -14.619 -168.3396
39.500000 -14.623 -168.7562
40.000000 -14.628 -169.0307
40.599998 -14.634 -169.3580
41.200001 -14.635 -169.6977
41.799999 -14.635 -170.0528
42.500000 -14.638 -170.4378
43.099998 -14.643 -170.7023
43.700001 -14.646 -170.9143
44.400002 -14.645 -171.1560
45.000000 -14.642 -171.4222
45.500000 -14.643 -171.6971
46.200001 -14.650 -172.1062
46.799999 -14.657 -172.4236
47.500000 -14.662 -172.7361
48.200001 -14.675 -172.9279
48.700001 -14.685 -172.9472
49.400002 -14.680 -172.9080
50.000000 -14.661 -173.0341
50.799999 -14.656 -173.5458
51.500000 -14.684 -174.0422
52.200001 -14.712 -174.3834
53.000000 -14.718 -174.6900
53.799999 -14.722 -174.9953
54.500000 -14.733 -175.2199
55.200001 -14.749 -175.4375
56.000000 -14.772 -175.7210
57.000000 -14.801 -176.0298
58.000000 -14.804 -176.3181
59.000000 -14.806 -176.6802
60.000000 -14.825 -176.9565
60.799999 -14.839 -177.1292
61.500000 -14.854 -177.3212
62.200001 -14.877 -177.5294
63.000000 -14.908 -177.7227
64.000000 -14.931 -177.9245
65.000000 -14.939 -178.1538
66.000000 -14.939 -178.4098
67.000000 -14.943 -178.7123
68.000000 -14.958 -179.0112
69.000000 -14.976 -179.2602
70.000000 -14.991 -179.4804
71.000000 -15.004 -179.6602
72.000000 -15.014 -179.8547
73.000000 -15.032 179.9262
74.000000 -15.057 179.7585
75.000000 -15.076 179.6278
76.199997 -15.088 179.4532
77.500000 -15.096 179.1956
78.800003 -15.116 178.9148
80.000000 -15.138 178.7399
81.199997 -15.152 178.5769
82.500000 -15.169 178.3650
83.800003 -15.187 178.2012
85.000000 -15.199 178.0287
86.199997 -15.222 177.8329
87.500000 -15.255 177.6628
88.500000 -15.277 177.5326
90.000000 -15.301 177.2996
91.199997 -15.317 177.0898
92.500000 -15.334 176.8671
93.800003 -15.351 176.6990
95.000000 -15.363 176.5956
96.199997 -15.376 176.4821
97.500000 -15.398 176.3161
98.800003 -15.423 176.1355
100.000000 -15.446 175.9972
101.500000 -15.471 175.8459
103.000000 -15.491 175.6505
104.400002 -15.508 175.4714
106.000000 -15.529 175.3352
107.500000 -15.554 175.1971
109.000000 -15.579 175.0519
110.599998 -15.604 174.9965
112.000000 -15.635 174.9747
113.800003 -15.676 174.8448
115.000000 -15.694 174.7221
117.199997 -15.722 174.4630
118.000000 -15.739 174.3004
120.599998 -15.796 173.9434
122.000000 -15.803 174.0397
124.099998 -15.830 174.1001
125.000000 -15.846 174.0733
126.500000 -15.865 174.0248
128.000000 -15.881 173.9886
131.500000 -15.926 173.7504
132.000000 -15.933 173.7147
134.000000 -15.968 173.6500
136.000000 -15.999 173.6663
138.000000 -16.020 173.6945
140.000000 -16.044 173.6610
143.000000 -16.106 173.7811
145.000000 -16.132 173.7640
147.500000 -16.138 173.4373
150.000000 -16.138 173.2557
152.500000 -16.179 173.3190
155.000000 -16.227 173.3550
157.500000 -16.255 173.3542
160.000000 -16.281 173.3606
162.500000 -16.309 173.3743
165.000000 -16.322 173.4209
167.500000 -16.327 173.4861
170.000000 -16.366 173.4314
172.500000 -16.413 173.3737
175.000000 -16.445 173.3182
177.500000 -16.469 173.2358
180.000000 -16.485 173.1674
182.500000 -16.502 173.1042
185.000000 -16.524 173.0675
187.500000 -16.545 173.1156
190.000000 -16.562 173.2107
192.500000 -16.574 173.2281
195.000000 -16.590 173.1718
197.500000 -16.616 173.0921
200.000000 -16.642 173.0183
203.000000 -16.676 172.9898
206.000000 -16.707 173.0147
209.000000 -16.734 173.0319
212.000000 -16.756 173.0308
214.000000 -16.768 173.0472
218.000000 -16.798 173.1266
220.000000 -16.815 173.1517
224.000000 -16.848 173.1412
227.000000 -16.870 173.1109
230.000000 -16.890 173.0809
233.000000 -16.912 173.0832
236.000000 -16.935 173.1320
240.000000 -16.964 173.2051
243.000000 -16.981 173.2184
247.000000 -17.001 173.1871
250.000000 -17.020 173.1617
254.000000 -17.057 173.1520
258.000000 -17.089 173.1611
262.000000 -17.111 173.2108
265.000000 -17.132 173.2509
269.000000 -17.167 173.2806
272.000000 -17.189 173.3021
276.000000 -17.211 173.3297
280.000000 -17.232 173.3736
285.000000 -17.270 173.4399
290.000000 -17.308 173.4830
295.000000 -17.349 173.5468
300.000000 -17.383 173.6097
304.000000 -17.412 173.6644
307.000000 -17.432 173.7086
311.000000 -17.454 173.7661
315.000000 -17.480 173.8442
320.000000 -17.516 173.9707
325.000000 -17.553 174.0788
330.000000 -17.589 174.0948
335.000000 -17.630 174.0707
340.000000 -17.663 174.1767
345.000000 -17.690 174.3214
350.000000 -17.720 174.4107
355.000000 -17.750 174.5578
360.000000 -17.778 174.6919
365.000000 -17.808 174.7993
370.000000 -17.839 174.9056
375.000000 -17.874 175.0317
382.000000 -17.914 175.2214
387.000000 -17.946 175.3727
395.000000 -18.004 175.5732
400.000000 -18.039 175.7003
406.000000 -18.076 175.8693
412.000000 -18.117 176.0005
418.000000 -18.158 176.1066
425.000000 -18.201 176.3061
431.000000 -18.239 176.4910
437.000000 -18.281 176.6861
444.000000 -18.329 176.9402
450.000000 -18.371 177.1758
455.000000 -18.411 177.4011
462.000000 -18.474 177.7039
468.000000 -18.528 178.0055
475.000000 -18.581 178.3943
482.000000 -18.621 178.7639
487.000000 -18.643 179.0467
494.000000 -18.670 179.4607
500.000000 -18.691 179.8087
508.000000 -18.709 -179.7703
515.000000 -18.726 -179.4617
522.000000 -18.752 -179.1898
530.000000 -18.787 -178.8738
538.000000 -18.818 -178.5788
545.000000 -18.845 -178.2837
552.000000 -18.874 -177.9304
560.000000 -18.913 -177.5282
570.000000 -18.961 -177.0738
580.000000 -19.012 -176.6171
590.000000 -19.077 -176.0627
600.000000 -19.143 -175.3739
608.000000 -19.186 -174.7234
615.000000 -19.215 -174.1369
622.000000 -19.237 -173.5596
630.000000 -19.255 -172.8844
640.000000 -19.265 -172.0124
650.000000 -19.267 -171.1017
660.000000 -19.260 -170.2379
670.000000 -19.234 -169.4685
680.000000 -19.199 -168.7813
690.000000 -19.161 -168.1238
700.000000 -19.118 -167.4846
710.000000 -19.078 -166.9114
720.000000 -19.045 -166.4251
730.000000 -19.011 -165.9772
740.000000 -18.980 -165.5428
750.000000 -18.959 -165.1393
762.000000 -18.936 -164.6550
775.000000 -18.915 -164.0648
788.000000 -18.898 -163.4664
800.000000 -18.888 -162.9038
812.000000 -18.873 -162.3179
825.000000 -18.854 -161.6801
838.000000 -18.833 -161.0499
850.000000 -18.812 -160.4715
862.000000 -18.790 -159.8863
875.000000 -18.766 -159.2240
885.000000 -18.743 -158.6713
900.000000 -18.704 -157.8662
912.000000 -18.674 -157.2696
925.000000 -18.637 -156.6427
938.000000 -18.596 -156.0020
950.000000 -18.554 -155.4041
962.000000 -18.509 -154.8494
975.000000 -18.459 -154.2775
988.000000 -18.403 -153.7065
1000.000000 -18.351 -153.1806
1015.000000 -18.288 -152.5346
1030.000000 -18.222 -151.9049
1044.000000 -18.159 -151.3344
1060.000000 -18.085 -150.7273
1075.000000 -18.012 -150.1976
1090.000000 -17.937 -149.6797
1106.000000 -17.858 -149.1260
1120.000000 -17.787 -148.6334
1138.000000 -17.700 -148.0256
1150.000000 -17.643 -147.6534
1172.000000 -17.529 -147.0033
1180.000000 -17.488 -146.7651
1206.000000 -17.358 -145.9994
1220.000000 -17.289 -145.5854
1241.000000 -17.184 -144.9879
1250.000000 -17.139 -144.7440
1265.000000 -17.066 -144.3371
1280.000000 -16.995 -143.9255
1315.000000 -16.821 -142.9708
1320.000000 -16.797 -142.8329
1340.000000 -16.703 -142.2707
1360.000000 -16.609 -141.7158
1380.000000 -16.514 -141.1768
1400.000000 -16.420 -140.6322
1430.000000 -16.285 -139.7906
1450.000000 -16.190 -139.1959
1475.000000 -16.073 -138.4456
1500.000000 -15.959 -137.6824
1525.000000 -15.849 -136.8930
1550.000000 -15.738 -136.0966
1575.000000 -15.617 -135.2758
1600.000000 -15.495 -134.4202
1625.000000 -15.373 -133.5491
1650.000000 -15.244 -132.6634
1675.000000 -15.105 -131.7517
1700.000000 -14.961 -130.8223
1725.000000 -14.808 -129.8835
1750.000000 -14.643 -128.9298
1775.000000 -14.466 -127.9848
1800.000000 -14.275 -127.0525
1825.000000 -14.068 -126.1216
1850.000000 -13.840 -125.2351
1875.000000 -13.593 -124.4300
1900.000000 -13.330 -123.7044
1925.000000 -13.053 -123.0617
1950.000000 -12.765 -122.5415
1975.000000 -12.468 -122.1518
2000.000000 -12.166 -121.8945
2030.000000 -11.805 -121.7597
2060.000000 -11.444 -121.7897
2090.000000 -11.090 -121.9575
2120.000000 -10.744 -122.2542
2140.000000 -10.518 -122.5080
2180.000000 -10.080 -123.1230
2200.000000 -9.867 -123.4766
2240.000000 -9.446 -124.2657
2270.000000 -9.133 -124.9204
2300.000000 -8.821 -125.6421
2330.000000 -8.513 -126.4391
2360.000000 -8.207 -127.3149
2400.000000 -7.804 -128.6106
2430.000000 -7.504 -129.6882
2470.000000 -7.110 -131.2946
2500.000000 -6.820 -132.6392
2540.000000 -6.446 -134.6305
2580.000000 -6.093 -136.8462
2620.000000 -5.765 -139.2749
2650.000000 -5.539 -141.2328
2690.000000 -5.268 -144.0148
2720.000000 -5.091 -146.2102
2760.000000 -4.895 -149.2500
2800.000000 -4.747 -152.3759
2850.000000 -4.635 -156.3237
2900.000000 -4.597 -160.1978
2950.000000 -4.628 -163.8885
3000.000000 -4.719 -167.3477
3040.000000 -4.829 -169.8996
3070.000000 -4.928 -171.6737
3110.000000 -5.077 -173.8417
3150.000000 -5.239 -175.7764
3200.000000 -5.455 -177.8912
3250.000000 -5.675 -179.6954
3300.000000 -5.890 178.7975
3350.000000 -6.096 177.5619
3400.000000 -6.291 176.5636
3450.000000 -6.471 175.7673
3500.000000 -6.630 175.1441
3550.000000 -6.767 174.6705
3600.000000 -6.881 174.3290
3650.000000 -6.973 174.0803
3700.000000 -7.041 173.8985
3750.000000 -7.083 173.7734
3820.000000 -7.099 173.6574
3870.000000 -7.075 173.5707
3950.000000 -6.973 173.3376
4000.000000 -6.873 173.0889
4060.000000 -6.719 172.6261
4120.000000 -6.530 171.9324
4180.000000 -6.310 170.9481
4250.000000 -6.018 169.3633
4310.000000 -5.747 167.5649
4370.000000 -5.467 165.2733
4440.000000 -5.146 161.8711
4500.000000 -4.903 158.2784
4550.000000 -4.740 154.7926
4620.000000 -4.608 149.1861
4680.000000 -4.616 143.8206
4750.000000 -4.801 137.2162
4820.000000 -5.184 130.6763
4870.000000 -5.574 126.2831
4940.000000 -6.258 120.7798
5000.000000 -6.942 116.8023
5080.000000 -7.940 112.6455
5150.000000 -8.851 110.0255
5220.000000 -9.765 108.2380
5300.000000 -10.784 107.0559
5380.000000 -11.763 106.6053
5450.000000 -12.582 106.6951
5520.000000 -13.363 107.1613
5600.000000 -14.210 108.0803
5700.000000 -15.203 109.7109
5800.000000 -16.125 111.7646
5900.000000 -16.976 114.1421
6000.000000 -17.763 116.8158
6080.000000 -18.350 119.1295
6150.000000 -18.834 121.2560
6220.000000 -19.289 123.4669
6300.000000 -19.779 126.0907
6400.000000 -20.346 129.5005
6500.000000 -20.864 133.0225
6600.000000 -21.332 136.6084
6700.000000 -21.754 140.2702
6800.000000 -22.138 144.0473
6900.000000 -22.481 147.8953
7000.000000 -22.784 151.7861
7100.000000 -23.045 155.7086
7200.000000 -23.263 159.6623
7300.000000 -23.444 163.6449
7400.000000 -23.586 167.6349
7500.000000 -23.688 171.6227
7620.000000 -23.754 176.3674
7750.000000 -23.765 -178.5457
7880.000000 -23.726 -173.4910
8000.000000 -23.633 -168.8643
8120.000000 -23.475 -164.2755
8250.000000 -23.228 -159.4191
8380.000000 -22.910 -154.7476
8500.000000 -22.553 -150.5969
8620.000000 -22.126 -146.6185
8750.000000 -21.574 -142.5074
8850.000000 -21.075 -139.4954
9000.000000 -20.184 -135.3561
9120.000000 -19.324 -132.5493
9250.000000 -18.219 -130.2527
9380.000000 -16.908 -129.1401
9500.000000 -15.517 -129.7522
9620.000000 -14.010 -132.7756
9750.000000 -12.436 -139.9621
9880.000000 -11.264 -151.9695
10000.000000 -10.838 -166.2838
10150.000000 -11.354 175.9238
10300.000000 -12.780 163.0417
10440.000000 -14.473 156.4694
10600.000000 -16.373 153.7180
10750.000000 -17.925 153.9543
10900.000000 -19.222 155.7658
11060.000000 -20.355 158.7413
11200.000000 -21.167 161.8733
11380.000000 -22.001 166.3080
11500.000000 -22.443 169.4355
11720.000000 -23.053 175.3846
11800.000000 -23.216 177.5905
12060.000000 -23.500 -174.7185
12200.000000 -23.393 -170.5343
12410.000000 -22.990 -165.8959
12500.000000 -22.786 -164.3451
12650.000000 -22.378 -162.0892
12800.000000 -21.858 -160.4351
13150.000000 -20.308 -160.8163
13200.000000 -20.078 -161.5212
13400.000000 -19.263 -166.2340
13600.000000 -18.791 -173.5887
13800.000000 -18.807 177.9766
14000.000000 -19.287 170.5958
14300.000000 -20.531 163.7328
14500.000000 -21.475 161.3644
14750.000000 -22.689 160.0639
15000.000000 -23.951 161.1439
15250.000000 -25.223 165.5153
15500.000000 -26.372 172.2487
15750.000000 -27.266 -179.7823
16000.000000 -27.841 -170.7637
16250.000000 -28.090 -160.8816
16500.000000 -28.041 -152.1948
16750.000000 -27.855 -146.8616
17000.000000 -27.883 -145.7888
17250.000000 -28.521 -147.5489
17500.000000 -29.930 -148.5914
17750.000000 -31.925 -146.1053
18000.000000 -34.137 -140.5280
18250.000000 -36.246 -133.8460
18500.000000 -38.057 -126.6774
18750.000000 -39.529 -119.4778
19000.000000 -40.695 -113.4282
19250.000000 -41.579 -109.0576
19500.000000 -42.163 -105.5182
19750.000000 -42.379 -102.4540
20000.000000 -42.090 -100.0194
