* REW测量的测量数据V5.20.13
* 来源: 麦克风 (Realtek High Definition Audio, MICROPHONE (主音), L, volume: no control
* 格式: 512k 对数扫频正弦, 1 扫频 at 0.0 dBFS 没有时间参考
* 日期: 2024-10-9 19:51:56
* REW 设置:
* C计权补偿: 关
*  目标电平: 75.0 dB
* 注释: ; 
* 测量: NICEHCK YD520 Black Tips L
* 平滑: 1/24 倍频程
* 频率步进: 1/48 倍频程
* 起始频率: 20.300 Hz
*
* 频率(Hz) SPL(dB) 相位(角度)
20.299999 -15.157 -151.7540
20.600000 -15.137 -151.9927
20.900000 -15.097 -152.4090
21.200001 -15.064 -152.7743
21.400000 -15.046 -152.9827
21.799999 -15.016 -153.3428
22.000000 -15.001 -153.5084
22.400000 -14.975 -153.8351
22.700001 -14.958 -154.0959
23.000000 -14.947 -154.3825
23.299999 -14.940 -154.6968
23.600000 -14.939 -155.0381
24.000000 -14.946 -155.5275
24.299999 -14.954 -155.9084
24.700001 -14.968 -156.4208
25.000000 -14.978 -156.8042
25.400000 -14.985 -157.3102
25.799999 -14.987 -157.8008
26.200001 -14.981 -158.2704
26.500000 -14.972 -158.6124
26.900000 -14.957 -159.0601
27.200001 -14.947 -159.3880
27.600000 -14.938 -159.8028
28.000000 -14.932 -160.1741
28.500000 -14.926 -160.5811
29.000000 -14.915 -160.9865
29.500000 -14.902 -161.4495
30.000000 -14.897 -161.9514
30.400000 -14.899 -162.3267
30.700001 -14.901 -162.5715
31.100000 -14.900 -162.8500
31.500000 -14.895 -163.0992
32.000000 -14.883 -163.4182
32.500000 -14.874 -163.7701
33.000000 -14.870 -164.1484
33.500000 -14.872 -164.5477
34.000000 -14.875 -164.9672
34.500000 -14.881 -165.3808
35.000000 -14.885 -165.7432
35.500000 -14.880 -166.0362
36.000000 -14.864 -166.3005
36.500000 -14.844 -166.5934
37.000000 -14.832 -166.9297
37.500000 -14.834 -167.2729
38.200001 -14.855 -167.7078
38.700001 -14.870 -168.0025
39.500000 -14.885 -168.4978
40.000000 -14.888 -168.8015
40.599998 -14.885 -169.1420
41.200001 -14.878 -169.4729
41.799999 -14.880 -169.7861
42.500000 -14.892 -170.0920
43.099998 -14.902 -170.3443
43.700001 -14.909 -170.6629
44.400002 -14.921 -171.0854
45.000000 -14.928 -171.3977
45.500000 -14.926 -171.6124
46.200001 -14.922 -171.8794
46.799999 -14.929 -172.0621
47.500000 -14.947 -172.2407
48.200001 -14.977 -172.5409
48.700001 -15.016 -172.8400
49.400002 -15.086 -173.1700
50.000000 -15.119 -173.2710
50.799999 -15.083 -173.4263
51.500000 -15.025 -173.7990
52.200001 -14.992 -174.2083
53.000000 -14.986 -174.4962
53.799999 -14.995 -174.7057
54.500000 -15.014 -174.9195
55.200001 -15.039 -175.1503
56.000000 -15.061 -175.4384
57.000000 -15.080 -175.8179
58.000000 -15.094 -176.1532
59.000000 -15.104 -176.4690
60.000000 -15.116 -176.7711
60.799999 -15.125 -177.0046
61.500000 -15.136 -177.2087
62.200001 -15.152 -177.4000
63.000000 -15.175 -177.5904
64.000000 -15.204 -177.7821
65.000000 -15.219 -177.9515
66.000000 -15.218 -178.1799
67.000000 -15.220 -178.4658
68.000000 -15.234 -178.7457
69.000000 -15.256 -178.9915
70.000000 -15.271 -179.2242
71.000000 -15.279 -179.4884
72.000000 -15.298 -179.7116
73.000000 -15.326 -179.8270
74.000000 -15.349 -179.9277
75.000000 -15.365 179.9039
76.199997 -15.377 179.6338
77.500000 -15.392 179.3511
78.800003 -15.412 179.1363
80.000000 -15.428 178.9579
81.199997 -15.436 178.7707
82.500000 -15.449 178.5790
83.800003 -15.469 178.4239
85.000000 -15.491 178.2834
86.199997 -15.510 178.1208
87.500000 -15.535 177.8759
88.500000 -15.562 177.6920
90.000000 -15.594 177.4609
91.199997 -15.609 177.2869
92.500000 -15.621 177.1013
93.800003 -15.640 176.9001
95.000000 -15.660 176.7438
96.199997 -15.676 176.6158
97.500000 -15.695 176.4839
98.800003 -15.719 176.3631
100.000000 -15.738 176.2285
101.500000 -15.761 175.9970
103.000000 -15.786 175.8053
104.400002 -15.805 175.6929
106.000000 -15.831 175.5446
107.500000 -15.858 175.3788
109.000000 -15.875 175.2432
110.599998 -15.895 175.1819
112.000000 -15.928 175.1081
113.800003 -15.966 174.9172
115.000000 -15.979 174.8021
117.199997 -15.986 174.5428
118.000000 -15.974 174.3704
120.599998 -15.964 173.9967
122.000000 -16.024 174.1870
124.099998 -16.103 174.2702
125.000000 -16.123 174.2208
126.500000 -16.154 174.1578
128.000000 -16.184 174.0905
131.500000 -16.239 173.8770
132.000000 -16.246 173.8635
134.000000 -16.273 173.8329
136.000000 -16.290 173.7854
138.000000 -16.305 173.7756
140.000000 -16.339 173.7700
143.000000 -16.430 173.5846
145.000000 -16.443 173.5325
147.500000 -16.455 173.3999
150.000000 -16.488 173.1584
152.500000 -16.496 173.2670
155.000000 -16.521 173.3994
157.500000 -16.556 173.4171
160.000000 -16.586 173.3946
162.500000 -16.615 173.3814
165.000000 -16.644 173.3214
167.500000 -16.672 173.2563
170.000000 -16.690 173.3161
172.500000 -16.711 173.3058
175.000000 -16.737 173.2285
177.500000 -16.764 173.1450
180.000000 -16.791 173.1005
182.500000 -16.817 173.0893
185.000000 -16.844 173.0676
187.500000 -16.870 173.0309
190.000000 -16.898 173.0160
192.500000 -16.926 172.9883
195.000000 -16.953 172.9738
197.500000 -16.980 172.9673
200.000000 -17.005 172.9734
203.000000 -17.036 172.9475
206.000000 -17.069 172.9496
209.000000 -17.099 172.9584
212.000000 -17.126 172.9177
214.000000 -17.147 172.8885
218.000000 -17.195 172.9497
220.000000 -17.217 173.0151
224.000000 -17.253 173.0790
227.000000 -17.281 173.1334
230.000000 -17.298 173.2390
233.000000 -17.329 173.2988
236.000000 -17.364 173.4383
240.000000 -17.371 173.6021
243.000000 -17.391 173.5575
247.000000 -17.455 173.7172
250.000000 -17.481 173.9324
254.000000 -17.486 173.8098
258.000000 -17.556 173.5211
262.000000 -17.679 173.6383
265.000000 -17.734 174.0318
269.000000 -17.725 174.6886
272.000000 -17.691 175.0664
276.000000 -17.644 175.2928
280.000000 -17.618 175.2885
285.000000 -17.629 175.2437
290.000000 -17.643 175.4300
295.000000 -17.619 175.9992
300.000000 -17.610 176.5981
304.000000 -17.625 176.8367
307.000000 -17.648 176.8924
311.000000 -17.690 176.8330
315.000000 -17.723 176.6424
320.000000 -17.732 176.3589
325.000000 -17.727 176.2665
330.000000 -17.739 176.3028
335.000000 -17.759 176.3412
340.000000 -17.782 176.3161
345.000000 -17.828 176.2346
350.000000 -17.881 176.1932
355.000000 -17.907 176.2496
360.000000 -17.928 176.3148
365.000000 -17.958 176.3784
370.000000 -17.993 176.4404
375.000000 -18.026 176.5108
382.000000 -18.057 176.6581
387.000000 -18.084 176.7916
395.000000 -18.133 176.9882
400.000000 -18.163 177.0893
406.000000 -18.200 177.2079
412.000000 -18.232 177.3274
418.000000 -18.269 177.4739
425.000000 -18.316 177.6660
431.000000 -18.348 177.8285
437.000000 -18.384 177.9998
444.000000 -18.429 178.2652
450.000000 -18.462 178.4776
455.000000 -18.488 178.5863
462.000000 -18.527 178.7483
468.000000 -18.563 178.9772
475.000000 -18.601 179.2770
482.000000 -18.640 179.5350
487.000000 -18.670 179.7049
494.000000 -18.710 179.9539
500.000000 -18.741 -179.8116
508.000000 -18.783 -179.4697
515.000000 -18.818 -179.1499
522.000000 -18.854 -178.8440
530.000000 -18.896 -178.4943
538.000000 -18.936 -178.0943
545.000000 -18.972 -177.7339
552.000000 -19.008 -177.3926
560.000000 -19.050 -177.0251
570.000000 -19.111 -176.5418
580.000000 -19.175 -176.0273
590.000000 -19.241 -175.4990
600.000000 -19.306 -174.8102
608.000000 -19.351 -174.1558
615.000000 -19.379 -173.5491
622.000000 -19.401 -172.9285
630.000000 -19.420 -172.2098
640.000000 -19.437 -171.3199
650.000000 -19.441 -170.4249
660.000000 -19.426 -169.5316
670.000000 -19.394 -168.6711
680.000000 -19.350 -167.8718
690.000000 -19.301 -167.1455
700.000000 -19.252 -166.5389
710.000000 -19.200 -166.0410
720.000000 -19.155 -165.5971
730.000000 -19.122 -165.1759
740.000000 -19.095 -164.7764
750.000000 -19.067 -164.3842
762.000000 -19.041 -163.9108
775.000000 -19.026 -163.3820
788.000000 -19.010 -162.8325
800.000000 -18.996 -162.2750
812.000000 -18.979 -161.7204
825.000000 -18.959 -161.0934
838.000000 -18.939 -160.4147
850.000000 -18.921 -159.8011
862.000000 -18.901 -159.1940
875.000000 -18.874 -158.5270
885.000000 -18.850 -158.0153
900.000000 -18.808 -157.2782
912.000000 -18.775 -156.6927
925.000000 -18.737 -156.0363
938.000000 -18.694 -155.3716
950.000000 -18.651 -154.7861
962.000000 -18.602 -154.2491
975.000000 -18.544 -153.6665
988.000000 -18.485 -153.0860
1000.000000 -18.433 -152.5706
1015.000000 -18.370 -151.9314
1030.000000 -18.302 -151.3223
1044.000000 -18.235 -150.7595
1060.000000 -18.161 -150.1257
1075.000000 -18.092 -149.5854
1090.000000 -18.015 -149.0613
1106.000000 -17.932 -148.4930
1120.000000 -17.860 -148.0051
1138.000000 -17.767 -147.4286
1150.000000 -17.707 -147.0609
1172.000000 -17.599 -146.3873
1180.000000 -17.558 -146.1505
1206.000000 -17.425 -145.3883
1220.000000 -17.351 -144.9798
1241.000000 -17.242 -144.3869
1250.000000 -17.196 -144.1414
1265.000000 -17.119 -143.7377
1280.000000 -17.039 -143.3385
1315.000000 -16.859 -142.3529
1320.000000 -16.834 -142.2129
1340.000000 -16.737 -141.6621
1360.000000 -16.639 -141.1114
1380.000000 -16.538 -140.5561
1400.000000 -16.438 -140.0157
1430.000000 -16.291 -139.1813
1450.000000 -16.195 -138.5875
1475.000000 -16.073 -137.8410
1500.000000 -15.953 -137.0996
1525.000000 -15.834 -136.3449
1550.000000 -15.712 -135.5522
1575.000000 -15.587 -134.7162
1600.000000 -15.458 -133.8677
1625.000000 -15.326 -133.0246
1650.000000 -15.191 -132.1657
1675.000000 -15.048 -131.2688
1700.000000 -14.894 -130.3425
1725.000000 -14.728 -129.4070
1750.000000 -14.552 -128.4694
1775.000000 -14.362 -127.5544
1800.000000 -14.158 -126.6551
1825.000000 -13.938 -125.7728
1850.000000 -13.697 -124.9321
1875.000000 -13.438 -124.1615
1900.000000 -13.165 -123.4935
1925.000000 -12.880 -122.9293
1950.000000 -12.580 -122.4728
1975.000000 -12.271 -122.1367
2000.000000 -11.959 -121.9442
2030.000000 -11.588 -121.8907
2060.000000 -11.216 -122.0036
2090.000000 -10.849 -122.2798
2120.000000 -10.491 -122.7055
2140.000000 -10.257 -123.0536
2180.000000 -9.805 -123.8622
2200.000000 -9.586 -124.3113
2240.000000 -9.158 -125.3016
2270.000000 -8.842 -126.1161
2300.000000 -8.530 -127.0039
2330.000000 -8.224 -127.9784
2360.000000 -7.924 -129.0453
2400.000000 -7.535 -130.6006
2430.000000 -7.251 -131.8638
2470.000000 -6.888 -133.6869
2500.000000 -6.628 -135.1533
2540.000000 -6.302 -137.2165
2580.000000 -5.997 -139.3606
2620.000000 -5.706 -141.5467
2650.000000 -5.489 -143.2388
2690.000000 -5.195 -145.6761
2720.000000 -4.980 -147.7196
2760.000000 -4.726 -150.7812
2800.000000 -4.536 -154.1476
2850.000000 -4.407 -158.4986
2900.000000 -4.384 -162.7037
2950.000000 -4.445 -166.5739
3000.000000 -4.564 -170.0658
3040.000000 -4.690 -172.5750
3070.000000 -4.797 -174.2897
3110.000000 -4.948 -176.3564
3150.000000 -5.103 -178.1887
3200.000000 -5.300 179.8144
3250.000000 -5.490 178.1075
3300.000000 -5.665 176.6502
3350.000000 -5.822 175.4000
3400.000000 -5.959 174.3156
3450.000000 -6.077 173.3443
3500.000000 -6.171 172.4369
3550.000000 -6.245 171.5609
3600.000000 -6.305 170.7003
3650.000000 -6.358 169.8395
3700.000000 -6.407 168.9984
3750.000000 -6.454 168.2367
3820.000000 -6.500 167.4258
3870.000000 -6.494 167.0187
3950.000000 -6.374 166.3734
4000.000000 -6.231 165.7678
4060.000000 -6.005 164.6464
4120.000000 -5.740 162.9590
4180.000000 -5.458 160.6150
4250.000000 -5.142 156.9722
4310.000000 -4.920 153.0555
4370.000000 -4.778 148.4700
4440.000000 -4.748 142.4459
4500.000000 -4.859 136.9342
4550.000000 -5.055 132.2738
4620.000000 -5.485 125.9011
4680.000000 -5.989 120.7845
4750.000000 -6.713 115.4606
4820.000000 -7.550 111.0422
4870.000000 -8.194 108.4883
4940.000000 -9.129 105.7160
5000.000000 -9.940 104.0240
5080.000000 -11.005 102.6342
5150.000000 -11.907 102.0773
5220.000000 -12.775 102.0239
5300.000000 -13.721 102.4839
5380.000000 -14.618 103.3920
5450.000000 -15.362 104.4888
5520.000000 -16.068 105.8352
5600.000000 -16.831 107.6496
5700.000000 -17.721 110.2711
5800.000000 -18.541 113.1697
5900.000000 -19.290 116.2740
6000.000000 -19.973 119.5382
6080.000000 -20.482 122.2388
6150.000000 -20.903 124.6571
6220.000000 -21.301 127.1153
6300.000000 -21.727 129.9767
6400.000000 -22.222 133.6681
6500.000000 -22.677 137.4556
6600.000000 -23.084 141.2709
6700.000000 -23.449 145.1497
6800.000000 -23.778 149.1343
6900.000000 -24.070 153.1877
7000.000000 -24.327 157.2540
7100.000000 -24.541 161.3317
7200.000000 -24.713 165.4352
7300.000000 -24.850 169.5705
7400.000000 -24.953 173.6951
7500.000000 -25.021 177.8083
7620.000000 -25.047 -177.2430
7750.000000 -25.016 -171.8857
7880.000000 -24.922 -166.5555
8000.000000 -24.773 -161.6908
8120.000000 -24.561 -156.8959
8250.000000 -24.255 -151.8240
8380.000000 -23.867 -146.9194
8500.000000 -23.440 -142.5840
8620.000000 -22.938 -138.4714
8750.000000 -22.300 -134.2459
8850.000000 -21.734 -131.1954
9000.000000 -20.740 -127.0720
9120.000000 -19.797 -124.3210
9250.000000 -18.597 -122.1226
9380.000000 -17.184 -121.1980
9500.000000 -15.701 -122.1509
9620.000000 -14.130 -125.7148
9750.000000 -12.543 -133.6639
9880.000000 -11.420 -146.3705
10000.000000 -11.073 -160.9095
10150.000000 -11.670 -178.2364
10300.000000 -13.106 169.7054
10440.000000 -14.739 163.7876
10600.000000 -16.521 161.5234
10750.000000 -17.938 162.0306
10900.000000 -19.090 164.0247
11060.000000 -20.059 167.0981
11200.000000 -20.711 170.2310
11380.000000 -21.315 174.5743
11500.000000 -21.587 177.5608
11720.000000 -21.840 -177.0201
11800.000000 -21.857 -175.1117
12060.000000 -21.598 -168.8857
12200.000000 -21.127 -165.7966
12410.000000 -20.048 -163.8358
12500.000000 -19.518 -164.1672
12650.000000 -18.577 -166.4449
12800.000000 -17.665 -171.4701
13150.000000 -16.812 165.7245
13200.000000 -16.930 161.9222
13400.000000 -18.010 148.6974
13600.000000 -19.740 140.7575
13800.000000 -21.618 137.8625
14000.000000 -23.319 138.3687
14300.000000 -25.406 142.5550
14500.000000 -26.547 146.2707
14750.000000 -27.790 151.4852
15000.000000 -28.904 158.0978
15250.000000 -29.889 166.9401
15500.000000 -30.657 176.9380
15750.000000 -31.147 -172.9116
16000.000000 -31.349 -162.5096
16250.000000 -31.278 -151.8488
16500.000000 -30.988 -142.8517
16750.000000 -30.657 -137.4765
17000.000000 -30.643 -136.1666
17250.000000 -31.298 -136.9905
17500.000000 -32.685 -136.4494
17750.000000 -34.563 -132.2894
18000.000000 -36.567 -125.3372
18250.000000 -38.390 -117.5741
18500.000000 -39.861 -109.6947
18750.000000 -40.974 -102.1463
19000.000000 -41.767 -95.7852
19250.000000 -42.224 -91.3549
19500.000000 -42.283 -88.4168
19750.000000 -41.824 -86.6021
20000.000000 -40.710 -86.5005
