* REW测量的测量数据V5.20.13
* 来源: 麦克风 (Realtek High Definition Audio, MICROPHONE (主音), L, volume: no control
* 格式: 512k 对数扫频正弦, 1 扫频 at -4.0 dBFS 没有时间参考
* 日期: 2024-10-8 13:35:04
* REW 设置:
* C计权补偿: 关
*  目标电平: 75.0 dB
* 注释: ; 
* 测量: Tanchjim Kara T-APB Bass L
* 平滑: 1/24 倍频程
* 频率步进: 1/48 倍频程
* 起始频率: 20.000 Hz
*
* 频率(Hz) SPL(dB) 相位(角度)
20.000000 -15.356 -139.5817
20.299999 -15.270 -140.2249
20.600000 -15.190 -140.8027
20.900000 -15.116 -141.3621
21.200001 -15.051 -141.8971
21.400000 -15.014 -142.2255
21.799999 -14.950 -142.8112
22.000000 -14.921 -143.0752
22.400000 -14.866 -143.5791
22.700001 -14.829 -143.9632
23.000000 -14.796 -144.3641
23.299999 -14.768 -144.7796
23.600000 -14.742 -145.2065
24.000000 -14.711 -145.7854
24.299999 -14.689 -146.2206
24.700001 -14.659 -146.7989
25.000000 -14.637 -147.2312
25.400000 -14.607 -147.7988
25.799999 -14.579 -148.3360
26.200001 -14.549 -148.8328
26.500000 -14.524 -149.1915
26.900000 -14.486 -149.6809
27.200001 -14.458 -150.0735
27.600000 -14.424 -150.6313
28.000000 -14.398 -151.1952
28.500000 -14.372 -151.8496
29.000000 -14.338 -152.4459
29.500000 -14.294 -153.0509
30.000000 -14.247 -153.7094
30.400000 -14.218 -154.2437
30.700001 -14.202 -154.6171
31.100000 -14.185 -155.0517
31.500000 -14.167 -155.4222
32.000000 -14.138 -155.8609
32.500000 -14.106 -156.3509
33.000000 -14.083 -156.9082
33.500000 -14.071 -157.4902
34.000000 -14.064 -158.0568
34.500000 -14.057 -158.6006
35.000000 -14.048 -159.1238
35.500000 -14.037 -159.6199
36.000000 -14.022 -160.0877
36.500000 -14.005 -160.5415
37.000000 -13.989 -160.9933
37.500000 -13.977 -161.4315
38.200001 -13.963 -161.9957
38.700001 -13.949 -162.3858
39.500000 -13.924 -163.0584
40.000000 -13.914 -163.4831
40.599998 -13.906 -163.9474
41.200001 -13.897 -164.3788
41.799999 -13.890 -164.8208
42.500000 -13.891 -165.3252
43.099998 -13.893 -165.6957
43.700001 -13.884 -166.0423
44.400002 -13.862 -166.5112
45.000000 -13.845 -166.9818
45.500000 -13.838 -167.3822
46.200001 -13.839 -167.9112
46.799999 -13.846 -168.3303
47.500000 -13.856 -168.7847
48.200001 -13.861 -169.2122
48.700001 -13.858 -169.5215
49.400002 -13.848 -169.9874
50.000000 -13.841 -170.4007
50.799999 -13.839 -170.8918
51.500000 -13.839 -171.2452
52.200001 -13.837 -171.5948
53.000000 -13.841 -172.0422
53.799999 -13.856 -172.4942
54.500000 -13.868 -172.8670
55.200001 -13.877 -173.2298
56.000000 -13.881 -173.6376
57.000000 -13.879 -174.1756
58.000000 -13.884 -174.7577
59.000000 -13.901 -175.2586
60.000000 -13.912 -175.6679
60.799999 -13.918 -176.0138
61.500000 -13.928 -176.3499
62.200001 -13.946 -176.6862
63.000000 -13.968 -177.0312
64.000000 -13.986 -177.4167
65.000000 -13.995 -177.7951
66.000000 -14.003 -178.1714
67.000000 -14.014 -178.5525
68.000000 -14.028 -178.9312
69.000000 -14.042 -179.3089
70.000000 -14.055 -179.6925
71.000000 -14.068 179.9313
72.000000 -14.084 179.5583
73.000000 -14.106 179.2163
74.000000 -14.126 178.9172
75.000000 -14.140 178.5855
76.199997 -14.157 178.1369
77.500000 -14.174 177.6742
78.800003 -14.191 177.2256
80.000000 -14.214 176.8507
81.199997 -14.235 176.5420
82.500000 -14.254 176.2345
83.800003 -14.275 175.9026
85.000000 -14.299 175.5452
86.199997 -14.328 175.2096
87.500000 -14.355 174.9020
88.500000 -14.374 174.6597
90.000000 -14.406 174.2360
91.199997 -14.434 173.8647
92.500000 -14.463 173.4987
93.800003 -14.489 173.1518
95.000000 -14.516 172.8816
96.199997 -14.534 172.6479
97.500000 -14.552 172.3296
98.800003 -14.578 171.9833
100.000000 -14.601 171.6845
101.500000 -14.628 171.3580
103.000000 -14.655 171.0693
104.400002 -14.685 170.7903
106.000000 -14.728 170.4719
107.500000 -14.765 170.1846
109.000000 -14.787 169.8799
110.599998 -14.810 169.5760
112.000000 -14.841 169.3492
113.800003 -14.885 169.0461
115.000000 -14.915 168.8459
117.199997 -14.971 168.4795
118.000000 -14.995 168.3236
120.599998 -15.077 167.9910
122.000000 -15.097 167.8224
124.099998 -15.126 167.4583
125.000000 -15.143 167.3119
126.500000 -15.176 167.0944
128.000000 -15.214 166.8840
131.500000 -15.296 166.3758
132.000000 -15.307 166.3095
134.000000 -15.351 166.0781
136.000000 -15.398 165.8974
138.000000 -15.443 165.7507
140.000000 -15.482 165.5516
143.000000 -15.555 165.1888
145.000000 -15.601 164.9850
147.500000 -15.652 164.7441
150.000000 -15.700 164.5079
152.500000 -15.749 164.3380
155.000000 -15.805 164.1898
157.500000 -15.867 164.0512
160.000000 -15.925 163.9038
162.500000 -15.975 163.7331
165.000000 -16.023 163.5417
167.500000 -16.075 163.3644
170.000000 -16.127 163.2253
172.500000 -16.190 163.1256
175.000000 -16.254 162.9941
177.500000 -16.309 162.7983
180.000000 -16.357 162.6002
182.500000 -16.405 162.4861
185.000000 -16.456 162.4056
187.500000 -16.508 162.3200
190.000000 -16.561 162.2632
192.500000 -16.612 162.2029
195.000000 -16.663 162.1205
197.500000 -16.714 162.0509
200.000000 -16.761 161.9912
203.000000 -16.822 161.8983
206.000000 -16.891 161.8466
209.000000 -16.957 161.8286
212.000000 -17.020 161.8065
214.000000 -17.059 161.7755
218.000000 -17.136 161.7319
220.000000 -17.176 161.7385
224.000000 -17.251 161.7954
227.000000 -17.305 161.8843
230.000000 -17.356 161.9753
233.000000 -17.415 162.0080
236.000000 -17.478 162.0484
240.000000 -17.549 162.1522
243.000000 -17.597 162.2113
247.000000 -17.669 162.3207
250.000000 -17.721 162.4118
254.000000 -17.786 162.5359
258.000000 -17.854 162.6784
262.000000 -17.921 162.8560
265.000000 -17.968 163.0146
269.000000 -18.024 163.2133
272.000000 -18.064 163.3344
276.000000 -18.113 163.5118
280.000000 -18.162 163.7059
285.000000 -18.229 163.9779
290.000000 -18.287 164.2960
295.000000 -18.331 164.5737
300.000000 -18.382 164.8474
304.000000 -18.429 165.0693
307.000000 -18.461 165.2460
311.000000 -18.499 165.4901
315.000000 -18.532 165.7305
320.000000 -18.570 166.0672
325.000000 -18.609 166.4045
330.000000 -18.642 166.7406
335.000000 -18.683 167.0887
340.000000 -18.723 167.4003
345.000000 -18.750 167.6656
350.000000 -18.776 167.9536
355.000000 -18.798 168.2682
360.000000 -18.812 168.5849
365.000000 -18.828 168.8942
370.000000 -18.855 169.1749
375.000000 -18.885 169.4309
382.000000 -18.907 169.8051
387.000000 -18.917 170.0819
395.000000 -18.939 170.5008
400.000000 -18.951 170.7701
406.000000 -18.964 171.0986
412.000000 -18.976 171.3993
418.000000 -18.988 171.6750
425.000000 -19.000 171.9916
431.000000 -19.005 172.2823
437.000000 -19.013 172.5941
444.000000 -19.020 172.9090
450.000000 -19.019 173.1544
455.000000 -19.019 173.3914
462.000000 -19.022 173.6983
468.000000 -19.030 173.9259
475.000000 -19.034 174.2088
482.000000 -19.036 174.4977
487.000000 -19.040 174.7237
494.000000 -19.041 175.0215
500.000000 -19.039 175.2510
508.000000 -19.038 175.5313
515.000000 -19.035 175.7952
522.000000 -19.031 176.0519
530.000000 -19.025 176.3283
538.000000 -19.016 176.6094
545.000000 -19.006 176.8443
552.000000 -18.999 177.0673
560.000000 -18.993 177.2968
570.000000 -18.986 177.5512
580.000000 -18.983 177.7803
590.000000 -18.984 177.9765
600.000000 -18.988 178.2426
608.000000 -18.994 178.5098
615.000000 -19.000 178.7509
622.000000 -19.005 178.9809
630.000000 -19.004 179.2497
640.000000 -18.998 179.5836
650.000000 -18.997 179.9241
660.000000 -18.993 -179.6912
670.000000 -18.985 -179.3161
680.000000 -18.977 -178.9646
690.000000 -18.965 -178.6069
700.000000 -18.952 -178.2321
710.000000 -18.937 -177.8450
720.000000 -18.916 -177.4302
730.000000 -18.891 -177.0542
740.000000 -18.863 -176.7132
750.000000 -18.834 -176.3837
762.000000 -18.798 -176.0248
775.000000 -18.764 -175.6337
788.000000 -18.736 -175.2557
800.000000 -18.711 -174.9035
812.000000 -18.684 -174.5093
825.000000 -18.654 -174.0423
838.000000 -18.625 -173.5309
850.000000 -18.591 -173.0216
862.000000 -18.539 -172.4799
875.000000 -18.462 -171.9120
885.000000 -18.392 -171.5365
900.000000 -18.289 -171.1384
912.000000 -18.210 -170.9351
925.000000 -18.133 -170.7721
938.000000 -18.066 -170.6049
950.000000 -18.008 -170.4432
962.000000 -17.950 -170.2755
975.000000 -17.887 -170.0712
988.000000 -17.823 -169.8698
1000.000000 -17.762 -169.6952
1015.000000 -17.686 -169.4795
1030.000000 -17.607 -169.2673
1044.000000 -17.528 -169.0623
1060.000000 -17.433 -168.8492
1075.000000 -17.342 -168.7020
1090.000000 -17.250 -168.5897
1106.000000 -17.149 -168.4756
1120.000000 -17.057 -168.3848
1138.000000 -16.940 -168.3123
1150.000000 -16.862 -168.3026
1172.000000 -16.716 -168.3382
1180.000000 -16.664 -168.3664
1206.000000 -16.500 -168.5078
1220.000000 -16.411 -168.6195
1241.000000 -16.277 -168.8039
1250.000000 -16.222 -168.8848
1265.000000 -16.133 -169.0366
1280.000000 -16.046 -169.2180
1315.000000 -15.845 -169.6868
1320.000000 -15.818 -169.7599
1340.000000 -15.714 -170.0665
1360.000000 -15.613 -170.3690
1380.000000 -15.517 -170.6682
1400.000000 -15.425 -170.9797
1430.000000 -15.297 -171.4653
1450.000000 -15.217 -171.7889
1475.000000 -15.118 -172.1937
1500.000000 -15.029 -172.5890
1525.000000 -14.948 -172.9814
1550.000000 -14.869 -173.3658
1575.000000 -14.791 -173.7341
1600.000000 -14.720 -174.1175
1625.000000 -14.654 -174.4952
1650.000000 -14.587 -174.8637
1675.000000 -14.524 -175.2306
1700.000000 -14.460 -175.5873
1725.000000 -14.394 -175.9376
1750.000000 -14.334 -176.2982
1775.000000 -14.276 -176.6750
1800.000000 -14.217 -177.0648
1825.000000 -14.158 -177.4515
1850.000000 -14.097 -177.8359
1875.000000 -14.033 -178.2179
1900.000000 -13.968 -178.5918
1925.000000 -13.900 -178.9593
1950.000000 -13.832 -179.3331
1975.000000 -13.764 -179.7142
2000.000000 -13.693 179.8892
2030.000000 -13.611 179.3853
2060.000000 -13.528 178.8662
2090.000000 -13.443 178.3439
2120.000000 -13.359 177.7964
2140.000000 -13.301 177.4229
2180.000000 -13.192 176.6658
2200.000000 -13.139 176.2808
2240.000000 -13.034 175.4995
2270.000000 -12.953 174.8994
2300.000000 -12.876 174.2729
2330.000000 -12.801 173.6259
2360.000000 -12.730 172.9655
2400.000000 -12.639 172.0560
2430.000000 -12.572 171.3477
2470.000000 -12.485 170.3717
2500.000000 -12.425 169.6253
2540.000000 -12.350 168.5917
2580.000000 -12.283 167.5245
2620.000000 -12.223 166.4429
2650.000000 -12.183 165.6161
2690.000000 -12.135 164.4781
2720.000000 -12.104 163.6083
2760.000000 -12.070 162.4351
2800.000000 -12.047 161.2380
2850.000000 -12.032 159.7204
2900.000000 -12.031 158.1935
2950.000000 -12.045 156.6831
3000.000000 -12.076 155.1849
3040.000000 -12.119 153.9977
3070.000000 -12.158 153.1307
3110.000000 -12.220 152.0297
3150.000000 -12.290 151.0050
3200.000000 -12.387 149.8428
3250.000000 -12.487 148.7873
3300.000000 -12.582 147.8268
3350.000000 -12.671 146.9297
3400.000000 -12.760 146.0701
3450.000000 -12.851 145.2260
3500.000000 -12.945 144.4026
3550.000000 -13.042 143.6209
3600.000000 -13.144 142.8925
3650.000000 -13.252 142.2275
3700.000000 -13.362 141.6224
3750.000000 -13.469 141.0645
3820.000000 -13.619 140.3874
3870.000000 -13.723 139.9503
3950.000000 -13.881 139.3069
4000.000000 -13.978 138.9397
4060.000000 -14.091 138.5264
4120.000000 -14.201 138.1245
4180.000000 -14.308 137.7132
4250.000000 -14.434 137.2369
4310.000000 -14.546 136.8577
4370.000000 -14.659 136.4924
4440.000000 -14.792 136.0894
4500.000000 -14.909 135.7845
4550.000000 -15.009 135.5611
4620.000000 -15.148 135.2841
4680.000000 -15.268 135.0755
4750.000000 -15.410 134.8752
4820.000000 -15.551 134.7316
4870.000000 -15.651 134.6639
4940.000000 -15.789 134.6142
5000.000000 -15.908 134.6059
5080.000000 -16.065 134.6571
5150.000000 -16.203 134.7532
5220.000000 -16.340 134.8982
5300.000000 -16.495 135.1363
5380.000000 -16.646 135.4351
5450.000000 -16.776 135.7618
5520.000000 -16.903 136.1663
5600.000000 -17.043 136.7096
5700.000000 -17.203 137.5193
5800.000000 -17.341 138.4548
5900.000000 -17.452 139.4635
6000.000000 -17.531 140.5289
6080.000000 -17.568 141.3724
6150.000000 -17.585 142.0689
6220.000000 -17.589 142.6964
6300.000000 -17.581 143.3085
6400.000000 -17.563 143.9173
6500.000000 -17.550 144.3547
6600.000000 -17.549 144.6447
6700.000000 -17.566 144.8660
6800.000000 -17.604 145.1510
6900.000000 -17.660 145.5453
7000.000000 -17.723 146.0688
7100.000000 -17.782 146.7869
7200.000000 -17.820 147.6967
7300.000000 -17.833 148.7637
7400.000000 -17.816 149.9234
7500.000000 -17.756 151.1164
7620.000000 -17.618 152.5007
7750.000000 -17.390 153.8018
7880.000000 -17.082 154.7283
8000.000000 -16.719 155.0338
8120.000000 -16.287 154.4982
8250.000000 -15.787 152.4876
8380.000000 -15.379 148.4775
8500.000000 -15.264 142.9845
8620.000000 -15.576 136.9015
8750.000000 -16.447 132.3884
8850.000000 -17.336 132.1083
9000.000000 -18.382 136.8618
9120.000000 -18.479 142.3244
9250.000000 -17.879 146.1323
9380.000000 -17.038 145.5681
9500.000000 -16.457 141.1531
9620.000000 -16.286 134.3274
9750.000000 -16.641 126.4208
9880.000000 -17.482 120.0707
10000.000000 -18.535 116.5227
10150.000000 -19.986 115.2160
10300.000000 -21.383 116.6790
10440.000000 -22.538 119.7885
10600.000000 -23.639 124.6324
10750.000000 -24.451 129.9128
10900.000000 -25.064 135.5778
11060.000000 -25.519 141.7053
11200.000000 -25.773 146.8934
11380.000000 -25.943 153.2579
11500.000000 -25.960 157.2616
11720.000000 -25.813 163.8149
11800.000000 -25.715 165.8958
12060.000000 -25.275 171.3745
12200.000000 -24.985 173.4636
12410.000000 -24.542 175.4164
12500.000000 -24.364 175.8068
12650.000000 -24.100 175.9117
12800.000000 -23.896 175.4268
13150.000000 -23.785 172.6348
13200.000000 -23.821 172.1813
13400.000000 -24.088 170.6500
13600.000000 -24.508 169.8463
13800.000000 -25.016 169.9261
14000.000000 -25.569 170.9286
14300.000000 -26.512 173.7895
14500.000000 -27.320 176.5511
14750.000000 -28.600 -176.8081
15000.000000 -29.663 -164.3879
15250.000000 -29.908 -149.3158
15500.000000 -29.613 -135.8067
15750.000000 -29.123 -124.4871
16000.000000 -28.563 -114.3958
16250.000000 -28.025 -104.8315
16500.000000 -27.674 -96.8590
16750.000000 -27.751 -90.4636
17000.000000 -28.433 -82.9577
17250.000000 -29.561 -70.3128
17500.000000 -30.333 -51.1289
17750.000000 -29.703 -29.8732
18000.000000 -27.908 -14.4415
18250.000000 -26.103 -9.3482
18500.000000 -24.983 -11.7359
18750.000000 -24.564 -15.7546
19000.000000 -24.474 -18.7609
19250.000000 -24.306 -21.4004
19500.000000 -23.825 -24.5744
19750.000000 -23.015 -29.4062
20000.000000 -22.066 -37.1389
