* REW测量的测量数据V5.20.13
* 来源: E:\GitHub\Kara2003.github.io\data\Tanchjim Cora L.txt
* 格式: Comma/Tab/Space delimited data
* 日期: 2024-10-6 12:12:01
* REW 设置:
* C计权补偿: 关
*  目标电平: 75.0 dB
* 注释: Measurement imported from E:\GitHub\Kara2003.github.io\data\Tanchjim Cora L.txt Format: Comma/Tab/Space delimited data 54559 values loaded, 20 Hz to 20,000 Hz
* 测量: Tanchjim Cora L
* 平滑: 1/24 倍频程
* 频率步进: 1/48 倍频程
* 起始频率: 20.300 Hz
*
* 频率(Hz) SPL(dB) 相位(角度)
20.299999 95.101 -156.2175
20.600000 95.100 -156.4995
20.900000 95.095 -157.0511
21.200001 95.088 -157.6873
21.400000 95.082 -158.1254
21.799999 95.068 -159.0043
22.000000 95.059 -159.4358
22.400000 95.037 -160.2856
22.700001 95.017 -160.9180
23.000000 94.995 -161.5497
23.299999 94.972 -162.1816
23.600000 94.947 -162.8141
24.000000 94.914 -163.6574
24.299999 94.888 -164.2888
24.700001 94.855 -165.1273
25.000000 94.831 -165.7524
25.400000 94.800 -166.5784
25.799999 94.771 -167.3925
26.200001 94.744 -168.1908
26.500000 94.723 -168.7773
26.900000 94.696 -169.5413
27.200001 94.676 -170.0997
27.600000 94.649 -170.8234
28.000000 94.625 -171.5230
28.500000 94.595 -172.3660
29.000000 94.566 -173.1819
29.500000 94.535 -173.9775
30.000000 94.502 -174.7548
30.400000 94.474 -175.3617
30.700001 94.453 -175.8073
31.100000 94.425 -176.3891
31.500000 94.397 -176.9589
32.000000 94.360 -177.6570
32.500000 94.322 -178.3416
33.000000 94.282 -179.0120
33.500000 94.242 -179.6669
34.000000 94.204 179.6932
34.500000 94.167 179.0665
35.000000 94.131 178.4496
35.500000 94.095 177.8395
36.000000 94.059 177.2351
36.500000 94.022 176.6381
37.000000 93.985 176.0527
37.500000 93.947 175.4837
38.200001 93.894 174.7191
38.700001 93.855 174.1938
39.500000 93.793 173.3766
40.000000 93.754 172.8739
40.599998 93.707 172.2777
41.200001 93.660 171.6925
41.799999 93.613 171.1215
42.500000 93.557 170.4740
43.099998 93.509 169.9349
43.700001 93.461 169.4120
44.400002 93.405 168.8232
45.000000 93.358 168.3336
45.500000 93.318 167.9322
46.200001 93.262 167.3768
46.799999 93.214 166.9065
47.500000 93.159 166.3668
48.200001 93.105 165.8396
48.700001 93.067 165.4717
49.400002 93.012 164.9692
50.000000 92.965 164.5490
50.799999 92.900 164.0003
51.500000 92.843 163.5284
52.200001 92.786 163.0641
53.000000 92.721 162.5453
53.799999 92.656 162.0411
54.500000 92.599 161.6106
55.200001 92.543 161.1886
56.000000 92.479 160.7184
57.000000 92.399 160.1536
58.000000 92.320 159.6120
59.000000 92.242 159.0841
60.000000 92.164 158.5645
60.799999 92.103 158.1567
61.500000 92.049 157.8086
62.200001 91.995 157.4713
63.000000 91.932 157.1015
64.000000 91.854 156.6628
65.000000 91.777 156.2455
66.000000 91.699 155.8437
67.000000 91.623 155.4546
68.000000 91.548 155.0773
69.000000 91.473 154.7084
70.000000 91.398 154.3457
71.000000 91.324 153.9917
72.000000 91.250 153.6508
73.000000 91.177 153.3240
74.000000 91.105 153.0099
75.000000 91.033 152.7055
76.199997 90.947 152.3494
77.500000 90.854 151.9738
78.800003 90.761 151.6124
80.000000 90.677 151.2932
81.199997 90.594 150.9887
82.500000 90.505 150.6759
83.800003 90.418 150.3752
85.000000 90.338 150.1031
86.199997 90.259 149.8381
87.500000 90.173 149.5656
88.500000 90.107 149.3677
90.000000 90.007 149.0879
91.199997 89.927 148.8766
92.500000 89.841 148.6591
93.800003 89.756 148.4527
95.000000 89.678 148.2705
96.199997 89.602 148.0945
97.500000 89.519 147.9113
98.800003 89.437 147.7389
100.000000 89.363 147.5920
101.500000 89.271 147.4254
103.000000 89.180 147.2749
104.400002 89.095 147.1455
106.000000 88.999 147.0056
107.500000 88.910 146.8798
109.000000 88.823 146.7610
110.599998 88.733 146.6455
112.000000 88.657 146.5574
113.800003 88.562 146.4674
115.000000 88.501 146.4248
117.199997 88.392 146.3815
118.000000 88.353 146.3711
120.599998 88.218 146.3068
122.000000 88.140 146.2419
124.099998 88.020 146.1365
125.000000 87.970 146.1006
126.500000 87.889 146.0613
128.000000 87.811 146.0459
131.500000 87.638 146.0638
132.000000 87.613 146.0695
134.000000 87.517 146.0969
136.000000 87.423 146.1324
138.000000 87.330 146.1795
140.000000 87.241 146.2419
143.000000 87.110 146.3578
145.000000 87.024 146.4391
147.500000 86.918 146.5428
150.000000 86.814 146.6577
152.500000 86.714 146.7863
155.000000 86.617 146.9242
157.500000 86.522 147.0701
160.000000 86.428 147.2241
162.500000 86.335 147.3846
165.000000 86.244 147.5468
167.500000 86.157 147.7057
170.000000 86.074 147.8620
172.500000 85.992 148.0203
175.000000 85.912 148.1825
177.500000 85.832 148.3466
180.000000 85.752 148.5112
182.500000 85.675 148.6776
185.000000 85.599 148.8473
187.500000 85.525 149.0226
190.000000 85.454 149.2074
192.500000 85.384 149.4018
195.000000 85.316 149.6013
197.500000 85.249 149.8010
200.000000 85.184 149.9998
203.000000 85.108 150.2368
206.000000 85.034 150.4725
209.000000 84.961 150.7100
212.000000 84.891 150.9532
214.000000 84.845 151.1178
218.000000 84.753 151.4441
220.000000 84.707 151.6028
224.000000 84.617 151.9149
227.000000 84.551 152.1518
230.000000 84.487 152.3947
233.000000 84.424 152.6422
236.000000 84.361 152.8910
240.000000 84.280 153.2220
243.000000 84.220 153.4712
247.000000 84.142 153.8104
250.000000 84.085 154.0718
254.000000 84.012 154.4261
258.000000 83.942 154.7801
262.000000 83.874 155.1294
265.000000 83.825 155.3876
269.000000 83.761 155.7299
272.000000 83.712 155.9896
276.000000 83.648 156.3428
280.000000 83.584 156.7007
285.000000 83.506 157.1472
290.000000 83.432 157.5926
295.000000 83.362 158.0452
300.000000 83.294 158.5103
304.000000 83.240 158.8855
307.000000 83.202 159.1650
311.000000 83.152 159.5345
315.000000 83.104 159.9018
320.000000 83.046 160.3597
325.000000 82.989 160.8130
330.000000 82.935 161.2552
335.000000 82.882 161.6833
340.000000 82.831 162.1030
345.000000 82.783 162.5234
350.000000 82.735 162.9476
355.000000 82.688 163.3732
360.000000 82.641 163.7997
365.000000 82.594 164.2299
370.000000 82.548 164.6654
375.000000 82.502 165.1057
382.000000 82.442 165.7309
387.000000 82.402 166.1842
395.000000 82.344 166.9153
400.000000 82.311 167.3696
406.000000 82.276 167.9081
412.000000 82.244 168.4358
418.000000 82.217 168.9464
425.000000 82.188 169.5139
431.000000 82.166 169.9757
437.000000 82.143 170.4171
444.000000 82.115 170.9085
450.000000 82.090 171.3122
455.000000 82.068 171.6402
462.000000 82.034 172.0954
468.000000 82.005 172.4872
475.000000 81.969 172.9476
482.000000 81.933 173.4116
487.000000 81.908 173.7471
494.000000 81.874 174.2254
500.000000 81.846 174.6439
508.000000 81.809 175.2101
515.000000 81.779 175.7077
522.000000 81.750 176.2049
530.000000 81.719 176.7757
538.000000 81.689 177.3517
545.000000 81.665 177.8573
552.000000 81.641 178.3616
560.000000 81.616 178.9373
570.000000 81.586 179.6622
580.000000 81.558 -179.6057
590.000000 81.532 -178.8760
600.000000 81.509 -178.1542
608.000000 81.493 -177.5806
615.000000 81.479 -177.0800
622.000000 81.467 -176.5791
630.000000 81.454 -176.0049
640.000000 81.439 -175.2848
650.000000 81.425 -174.5631
660.000000 81.414 -173.8362
670.000000 81.406 -173.1015
680.000000 81.400 -172.3633
690.000000 81.397 -171.6273
700.000000 81.395 -170.8952
710.000000 81.395 -170.1648
720.000000 81.398 -169.4328
730.000000 81.402 -168.6950
740.000000 81.408 -167.9449
750.000000 81.418 -167.1757
762.000000 81.439 -166.2295
775.000000 81.476 -165.2123
788.000000 81.526 -164.2687
800.000000 81.575 -163.4938
812.000000 81.618 -162.7854
825.000000 81.656 -162.0382
838.000000 81.690 -161.2753
850.000000 81.722 -160.5520
862.000000 81.756 -159.8177
875.000000 81.797 -159.0133
885.000000 81.831 -158.3851
900.000000 81.889 -157.4217
912.000000 81.946 -156.6431
925.000000 82.022 -155.8307
938.000000 82.108 -155.1014
950.000000 82.188 -154.5185
962.000000 82.263 -153.9992
975.000000 82.338 -153.4683
988.000000 82.410 -152.9444
1000.000000 82.477 -152.4628
1015.000000 82.562 -151.8693
1030.000000 82.649 -151.2930
1044.000000 82.732 -150.7759
1060.000000 82.829 -150.2134
1075.000000 82.921 -149.7140
1090.000000 83.014 -149.2381
1106.000000 83.113 -148.7527
1120.000000 83.200 -148.3474
1138.000000 83.312 -147.8571
1150.000000 83.387 -147.5506
1172.000000 83.523 -147.0282
1180.000000 83.572 -146.8496
1206.000000 83.729 -146.3032
1220.000000 83.813 -146.0269
1241.000000 83.940 -145.6339
1250.000000 83.993 -145.4741
1265.000000 84.082 -145.2201
1280.000000 84.170 -144.9807
1315.000000 84.370 -144.4617
1320.000000 84.398 -144.3908
1340.000000 84.508 -144.1139
1360.000000 84.616 -143.8475
1380.000000 84.723 -143.5897
1400.000000 84.828 -143.3371
1430.000000 84.982 -142.9632
1450.000000 85.082 -142.7201
1475.000000 85.205 -142.4284
1500.000000 85.325 -142.1506
1525.000000 85.441 -141.8817
1550.000000 85.554 -141.6205
1575.000000 85.667 -141.3707
1600.000000 85.778 -141.1329
1625.000000 85.888 -140.9054
1650.000000 85.997 -140.6879
1675.000000 86.105 -140.4807
1700.000000 86.214 -140.2858
1725.000000 86.324 -140.1058
1750.000000 86.434 -139.9405
1775.000000 86.547 -139.7890
1800.000000 86.662 -139.6522
1825.000000 86.779 -139.5320
1850.000000 86.897 -139.4299
1875.000000 87.018 -139.3481
1900.000000 87.141 -139.2881
1925.000000 87.267 -139.2511
1950.000000 87.395 -139.2383
1975.000000 87.524 -139.2508
2000.000000 87.656 -139.2892
2030.000000 87.817 -139.3711
2060.000000 87.979 -139.4940
2090.000000 88.143 -139.6580
2120.000000 88.307 -139.8630
2140.000000 88.417 -140.0232
2180.000000 88.637 -140.4042
2200.000000 88.746 -140.6262
2240.000000 88.964 -141.1349
2270.000000 89.125 -141.5743
2300.000000 89.284 -142.0649
2330.000000 89.440 -142.6076
2360.000000 89.592 -143.2027
2400.000000 89.788 -144.0765
2430.000000 89.931 -144.7903
2470.000000 90.112 -145.8188
2500.000000 90.241 -146.6475
2540.000000 90.403 -147.8261
2580.000000 90.553 -149.0809
2620.000000 90.689 -150.4027
2650.000000 90.781 -151.4333
2690.000000 90.890 -152.8525
2720.000000 90.961 -153.9450
2760.000000 91.042 -155.4302
2800.000000 91.107 -156.9379
2850.000000 91.166 -158.8340
2900.000000 91.201 -160.7151
2950.000000 91.216 -162.5547
3000.000000 91.215 -164.3375
3040.000000 91.205 -165.7221
3070.000000 91.193 -166.7391
3110.000000 91.174 -168.0737
3150.000000 91.151 -169.3948
3200.000000 91.117 -171.0465
3250.000000 91.072 -172.7105
3300.000000 91.013 -174.3792
3350.000000 90.939 -176.0283
3400.000000 90.848 -177.6279
3450.000000 90.744 -179.1549
3500.000000 90.630 179.4003
3550.000000 90.510 178.0368
3600.000000 90.386 176.7477
3650.000000 90.260 175.5224
3700.000000 90.133 174.3482
3750.000000 90.005 173.2118
3820.000000 89.824 171.6577
3870.000000 89.694 170.5550
3950.000000 89.482 168.7705
4000.000000 89.342 167.6301
4060.000000 89.164 166.2315
4120.000000 88.969 164.8092
4180.000000 88.751 163.3926
4250.000000 88.465 161.8154
4310.000000 88.194 160.5968
4370.000000 87.904 159.5486
4440.000000 87.555 158.5516
4500.000000 87.258 157.8566
4550.000000 87.014 157.3517
4620.000000 86.680 156.7042
4680.000000 86.396 156.1755
4750.000000 86.063 155.5782
4820.000000 85.724 155.0073
4870.000000 85.476 154.6218
4940.000000 85.118 154.1236
5000.000000 84.799 153.7465
5080.000000 84.356 153.3369
5150.000000 83.950 153.0881
5220.000000 83.528 152.9655
5300.000000 83.025 153.0084
5380.000000 82.501 153.2749
5450.000000 82.027 153.7130
5520.000000 81.541 154.3607
5600.000000 80.973 155.3795
5700.000000 80.247 157.1111
5800.000000 79.512 159.4091
5900.000000 78.775 162.3432
6000.000000 78.050 165.9819
6080.000000 77.491 169.4341
6150.000000 77.027 172.8625
6220.000000 76.596 176.6788
6300.000000 76.159 -178.4829
6400.000000 75.727 -171.7654
6500.000000 75.470 -164.4883
6600.000000 75.425 -157.0002
6700.000000 75.579 -149.6093
6800.000000 75.918 -142.1793
6900.000000 76.540 -134.1730
7000.000000 77.603 -125.7634
7100.000000 79.041 -118.5252
7200.000000 80.581 -114.1571
7300.000000 82.007 -113.1809
7400.000000 83.215 -115.1612
7500.000000 84.162 -119.3473
7620.000000 84.930 -126.1313
7750.000000 85.323 -134.0898
7880.000000 85.335 -141.2001
8000.000000 85.109 -146.2367
8120.000000 84.763 -149.6327
8250.000000 84.355 -151.6796
8380.000000 83.993 -152.4487
8500.000000 83.737 -152.4071
8620.000000 83.571 -151.9375
8750.000000 83.491 -151.1787
8850.000000 83.496 -150.5226
9000.000000 83.609 -149.5574
9120.000000 83.790 -148.9153
9250.000000 84.078 -148.4962
9380.000000 84.453 -148.5379
9500.000000 84.863 -149.1572
9620.000000 85.311 -150.4993
9750.000000 85.802 -152.9379
9880.000000 86.252 -156.5247
10000.000000 86.585 -160.8690
10150.000000 86.831 -167.5054
10300.000000 86.838 -174.9846
10440.000000 86.606 177.9283
10600.000000 86.071 170.5151
10750.000000 85.351 164.8201
10900.000000 84.480 160.6231
11060.000000 83.460 157.7947
11200.000000 82.552 156.5477
11380.000000 81.431 156.2742
11500.000000 80.741 156.7191
11720.000000 79.624 158.4376
11800.000000 79.267 159.2805
12060.000000 78.283 162.6122
12200.000000 77.863 164.7029
12410.000000 77.382 168.1083
12500.000000 77.232 169.6357
12650.000000 77.061 172.2320
12800.000000 76.995 174.8519
13150.000000 77.313 -179.2371
13200.000000 77.422 -178.4566
13400.000000 78.048 -175.6828
13600.000000 78.997 -173.8626
13800.000000 80.225 -173.8062
14000.000000 81.568 -176.7078
14300.000000 83.219 170.7665
14500.000000 83.710 156.9814
14750.000000 83.372 137.8836
15000.000000 81.957 123.4411
15250.000000 79.673 117.7119
15500.000000 76.885 119.7348
15750.000000 74.032 126.2964
16000.000000 71.474 134.9661
16250.000000 69.301 144.9596
16500.000000 67.395 156.2304
16750.000000 65.656 168.5772
17000.000000 64.058 -178.4195
17250.000000 62.599 -165.1814
17500.000000 61.271 -152.0983
17750.000000 60.058 -139.5878
18000.000000 58.945 -128.0255
18250.000000 57.924 -117.6125
18500.000000 57.006 -108.4419
18750.000000 56.212 -100.6899
19000.000000 55.546 -94.5817
19250.000000 54.992 -90.1649
19500.000000 54.542 -87.2431
19750.000000 54.216 -85.5308
