* REW测量的测量数据V5.20.13
* 来源: 麦克风 (Realtek High Definition Audio, MICROPHONE (主音), L, volume: no control
* 格式: 512k 对数扫频正弦, 1 扫频 at 0.0 dBFS 没有时间参考
* 日期: 2024-10-7 12:41:14
* REW 设置:
* C计权补偿: 关
*  目标电平: 75.0 dB
* 注释: ; 
* 测量: Truthear ZeroRed Spring Tips
* 平滑: 1/24 倍频程
* 频率步进: 1/48 倍频程
* 起始频率: 20.300 Hz
*
* 频率(Hz) SPL(dB) 相位(角度)
20.299999 4.366 -160.7712
20.600000 4.375 -161.1290
20.900000 4.392 -161.7547
21.200001 4.404 -162.3115
21.400000 4.408 -162.6398
21.799999 4.412 -163.2364
22.000000 4.413 -163.5224
22.400000 4.415 -164.0868
22.700001 4.413 -164.5147
23.000000 4.408 -164.9535
23.299999 4.401 -165.4055
23.600000 4.392 -165.8765
24.000000 4.378 -166.5393
24.299999 4.365 -167.0586
24.700001 4.346 -167.7655
25.000000 4.329 -168.2926
25.400000 4.306 -168.9709
25.799999 4.287 -169.6028
26.200001 4.273 -170.1942
26.500000 4.268 -170.6303
26.900000 4.264 -171.2252
27.200001 4.258 -171.6834
27.600000 4.244 -172.2888
28.000000 4.223 -172.8479
28.500000 4.196 -173.4596
29.000000 4.182 -174.0449
29.500000 4.175 -174.6983
30.000000 4.163 -175.4195
30.400000 4.143 -175.9766
30.700001 4.125 -176.3495
31.100000 4.103 -176.7828
31.500000 4.088 -177.1797
32.000000 4.076 -177.7036
32.500000 4.058 -178.2925
33.000000 4.026 -178.8954
33.500000 3.987 -179.4527
34.000000 3.951 -179.9648
34.500000 3.925 179.5247
35.000000 3.905 178.9941
35.500000 3.888 178.4594
36.000000 3.870 177.9406
36.500000 3.852 177.4375
37.000000 3.830 176.9435
37.500000 3.800 176.4626
38.200001 3.750 175.8213
38.700001 3.712 175.3760
39.500000 3.653 174.6745
40.000000 3.621 174.2581
40.599998 3.589 173.7815
41.200001 3.564 173.3057
41.799999 3.538 172.8258
42.500000 3.500 172.2925
43.099998 3.462 171.8737
43.700001 3.423 171.4828
44.400002 3.380 171.0445
45.000000 3.348 170.6561
45.500000 3.321 170.3036
46.200001 3.277 169.7817
46.799999 3.231 169.3528
47.500000 3.175 168.8985
48.200001 3.122 168.4727
48.700001 3.088 168.1748
49.400002 3.047 167.7527
50.000000 3.015 167.3760
50.799999 2.966 166.8978
51.500000 2.923 166.5552
52.200001 2.885 166.2288
53.000000 2.838 165.7802
53.799999 2.774 165.3182
54.500000 2.716 164.9708
55.200001 2.668 164.6282
56.000000 2.616 164.1926
57.000000 2.546 163.6470
58.000000 2.474 163.1258
59.000000 2.399 162.6313
60.000000 2.326 162.2151
60.799999 2.271 161.9031
61.500000 2.219 161.6196
62.200001 2.160 161.3337
63.000000 2.090 161.0178
64.000000 2.011 160.6395
65.000000 1.948 160.2599
66.000000 1.889 159.8863
67.000000 1.822 159.5640
68.000000 1.745 159.2858
69.000000 1.667 159.0044
70.000000 1.595 158.7039
71.000000 1.531 158.3834
72.000000 1.467 158.0475
73.000000 1.391 157.7480
74.000000 1.309 157.5121
75.000000 1.233 157.2894
76.199997 1.150 156.9968
77.500000 1.063 156.6923
78.800003 0.975 156.4048
80.000000 0.889 156.1269
81.199997 0.805 155.8687
82.500000 0.719 155.6312
83.800003 0.634 155.4519
85.000000 0.554 155.2641
86.199997 0.466 155.0338
87.500000 0.363 154.8097
88.500000 0.286 154.6769
90.000000 0.175 154.4994
91.199997 0.086 154.3744
92.500000 -0.006 154.1998
93.800003 -0.098 153.9770
95.000000 -0.184 153.8314
96.199997 -0.263 153.7943
97.500000 -0.344 153.7744
98.800003 -0.431 153.7224
100.000000 -0.520 153.6962
101.500000 -0.636 153.6949
103.000000 -0.748 153.6412
104.400002 -0.839 153.5792
106.000000 -0.940 153.5457
107.500000 -1.042 153.5253
109.000000 -1.146 153.5782
110.599998 -1.258 153.7211
112.000000 -1.360 153.7947
113.800003 -1.486 153.8724
115.000000 -1.563 153.9525
117.199997 -1.597 154.2804
118.000000 -1.549 154.6689
120.599998 -1.526 155.5071
122.000000 -1.781 155.2141
124.099998 -2.093 154.8726
125.000000 -2.170 154.9070
126.500000 -2.285 155.1656
128.000000 -2.389 155.4536
131.500000 -2.606 155.8993
132.000000 -2.637 155.9445
134.000000 -2.759 156.1425
136.000000 -2.886 156.4467
138.000000 -3.001 157.0978
140.000000 -3.109 157.8807
143.000000 -3.349 158.4160
145.000000 -3.493 158.7756
147.500000 -3.664 159.3221
150.000000 -3.825 160.1048
152.500000 -4.043 161.4918
155.000000 -4.245 163.3328
157.500000 -4.343 165.6122
160.000000 -4.163 167.9301
162.500000 -3.882 168.5834
165.000000 -3.875 166.6064
167.500000 -3.892 169.4088
170.000000 -3.736 173.8230
172.500000 -3.672 173.9966
175.000000 -3.693 173.7849
177.500000 -3.676 173.5316
180.000000 -3.672 173.5090
182.500000 -3.671 173.8452
185.000000 -3.645 174.4015
187.500000 -3.613 175.2383
190.000000 -3.640 175.5586
192.500000 -3.682 175.2213
195.000000 -3.700 175.5928
197.500000 -3.700 176.3698
200.000000 -3.692 176.9149
203.000000 -3.669 177.3278
206.000000 -3.636 177.7837
209.000000 -3.581 178.5162
212.000000 -3.554 179.1707
214.000000 -3.535 179.3365
218.000000 -3.474 179.4324
220.000000 -3.455 179.6309
224.000000 -3.417 -179.9487
227.000000 -3.401 -179.7858
230.000000 -3.396 -179.5417
233.000000 -3.383 -179.2635
236.000000 -3.363 -179.0315
240.000000 -3.348 -178.6121
243.000000 -3.331 -178.2339
247.000000 -3.310 -177.8557
250.000000 -3.301 -177.6202
254.000000 -3.291 -177.3134
258.000000 -3.299 -177.0771
262.000000 -3.325 -176.8708
265.000000 -3.309 -176.5275
269.000000 -3.265 -176.0016
272.000000 -3.246 -175.6315
276.000000 -3.226 -175.1444
280.000000 -3.212 -174.6192
285.000000 -3.203 -173.8859
290.000000 -3.181 -173.0009
295.000000 -3.141 -171.9975
300.000000 -3.008 -171.5178
304.000000 -2.889 -171.2744
307.000000 -2.820 -171.0503
311.000000 -2.743 -170.8074
315.000000 -2.666 -170.6758
320.000000 -2.579 -170.5566
325.000000 -2.495 -170.4975
330.000000 -2.390 -170.6044
335.000000 -2.310 -170.6925
340.000000 -2.232 -170.5671
345.000000 -2.145 -170.4877
350.000000 -2.084 -170.6371
355.000000 -2.040 -170.8649
360.000000 -2.007 -171.0586
365.000000 -1.983 -171.2415
370.000000 -1.964 -171.3926
375.000000 -1.945 -171.4877
382.000000 -1.921 -171.5654
387.000000 -1.905 -171.5582
395.000000 -1.875 -171.5264
400.000000 -1.869 -171.6124
406.000000 -1.862 -171.6889
412.000000 -1.854 -171.7081
418.000000 -1.850 -171.7240
425.000000 -1.837 -171.7226
431.000000 -1.823 -171.6877
437.000000 -1.816 -171.6588
444.000000 -1.811 -171.6360
450.000000 -1.806 -171.6330
455.000000 -1.802 -171.6005
462.000000 -1.795 -171.5128
468.000000 -1.789 -171.4589
475.000000 -1.786 -171.3789
482.000000 -1.783 -171.2661
487.000000 -1.779 -171.1837
494.000000 -1.775 -171.0844
500.000000 -1.772 -170.9965
508.000000 -1.766 -170.8805
515.000000 -1.758 -170.8041
522.000000 -1.745 -170.7136
530.000000 -1.733 -170.5520
538.000000 -1.728 -170.4104
545.000000 -1.724 -170.3004
552.000000 -1.719 -170.1628
560.000000 -1.715 -170.0136
570.000000 -1.708 -169.8869
580.000000 -1.699 -169.7230
590.000000 -1.695 -169.5381
600.000000 -1.688 -169.3618
608.000000 -1.678 -169.2073
615.000000 -1.672 -169.0780
622.000000 -1.669 -168.9322
630.000000 -1.667 -168.7390
640.000000 -1.660 -168.5032
650.000000 -1.652 -168.2547
660.000000 -1.641 -167.9923
670.000000 -1.632 -167.7708
680.000000 -1.624 -167.5437
690.000000 -1.617 -167.2891
700.000000 -1.606 -167.0052
710.000000 -1.595 -166.7331
720.000000 -1.584 -166.4624
730.000000 -1.570 -166.1934
740.000000 -1.552 -165.9162
750.000000 -1.532 -165.6296
762.000000 -1.510 -165.2945
775.000000 -1.488 -164.9406
788.000000 -1.463 -164.5827
800.000000 -1.439 -164.2633
812.000000 -1.412 -163.9384
825.000000 -1.385 -163.5491
838.000000 -1.358 -163.1507
850.000000 -1.331 -162.7841
862.000000 -1.298 -162.4193
875.000000 -1.258 -162.0347
885.000000 -1.225 -161.7309
900.000000 -1.175 -161.3071
912.000000 -1.134 -160.9706
925.000000 -1.087 -160.6157
938.000000 -1.039 -160.2818
950.000000 -0.991 -159.9884
962.000000 -0.940 -159.7104
975.000000 -0.884 -159.4265
988.000000 -0.827 -159.1464
1000.000000 -0.774 -158.8979
1015.000000 -0.709 -158.6040
1030.000000 -0.641 -158.3456
1044.000000 -0.576 -158.1241
1060.000000 -0.497 -157.8927
1075.000000 -0.424 -157.7049
1090.000000 -0.351 -157.5180
1106.000000 -0.276 -157.3286
1120.000000 -0.210 -157.1738
1138.000000 -0.128 -156.9977
1150.000000 -0.075 -156.9024
1172.000000 0.021 -156.7670
1180.000000 0.058 -156.7237
1206.000000 0.174 -156.5599
1220.000000 0.232 -156.4593
1241.000000 0.319 -156.2983
1250.000000 0.356 -156.2366
1265.000000 0.413 -156.1420
1280.000000 0.471 -156.0359
1315.000000 0.613 -155.6935
1320.000000 0.633 -155.6411
1340.000000 0.712 -155.4272
1360.000000 0.793 -155.2031
1380.000000 0.883 -154.9674
1400.000000 0.978 -154.7309
1430.000000 1.122 -154.4005
1450.000000 1.224 -154.2189
1475.000000 1.359 -154.0286
1500.000000 1.494 -153.9096
1525.000000 1.622 -153.8467
1550.000000 1.744 -153.8403
1575.000000 1.865 -153.8883
1600.000000 1.978 -153.9774
1625.000000 2.080 -154.0898
1650.000000 2.173 -154.2221
1675.000000 2.264 -154.3307
1700.000000 2.353 -154.4440
1725.000000 2.436 -154.5649
1750.000000 2.517 -154.6692
1775.000000 2.598 -154.7832
1800.000000 2.680 -154.9081
1825.000000 2.763 -155.0043
1850.000000 2.847 -155.0815
1875.000000 2.935 -155.1692
1900.000000 3.023 -155.2614
1925.000000 3.113 -155.3547
1950.000000 3.206 -155.4538
1975.000000 3.302 -155.5572
2000.000000 3.401 -155.6819
2030.000000 3.518 -155.8614
2060.000000 3.640 -156.0465
2090.000000 3.765 -156.2544
2120.000000 3.889 -156.4920
2140.000000 3.973 -156.6616
2180.000000 4.144 -157.0360
2200.000000 4.229 -157.2358
2240.000000 4.399 -157.6802
2270.000000 4.528 -158.0449
2300.000000 4.657 -158.4455
2330.000000 4.785 -158.8899
2360.000000 4.912 -159.3713
2400.000000 5.076 -160.0614
2430.000000 5.199 -160.6184
2470.000000 5.359 -161.4283
2500.000000 5.475 -162.0793
2540.000000 5.624 -163.0079
2580.000000 5.765 -164.0057
2620.000000 5.900 -165.0601
2650.000000 5.995 -165.8840
2690.000000 6.116 -167.0352
2720.000000 6.201 -167.9387
2760.000000 6.303 -169.1940
2800.000000 6.395 -170.5054
2850.000000 6.493 -172.2170
2900.000000 6.572 -173.9772
2950.000000 6.634 -175.7552
3000.000000 6.675 -177.5679
3040.000000 6.691 -179.0267
3070.000000 6.693 179.8801
3110.000000 6.686 178.4387
3150.000000 6.668 177.0328
3200.000000 6.629 175.3163
3250.000000 6.575 173.6343
3300.000000 6.508 172.0098
3350.000000 6.427 170.4586
3400.000000 6.335 168.9868
3450.000000 6.231 167.5912
3500.000000 6.119 166.2689
3550.000000 6.002 165.0266
3600.000000 5.878 163.8713
3650.000000 5.747 162.7929
3700.000000 5.613 161.7822
3750.000000 5.475 160.8455
3820.000000 5.274 159.6602
3870.000000 5.129 158.8971
3950.000000 4.899 157.7974
4000.000000 4.753 157.1870
4060.000000 4.577 156.5375
4120.000000 4.400 155.9658
4180.000000 4.223 155.4538
4250.000000 4.020 154.9380
4310.000000 3.846 154.5806
4370.000000 3.673 154.2841
4440.000000 3.476 153.9879
4500.000000 3.309 153.7884
4550.000000 3.171 153.6676
4620.000000 2.982 153.5646
4680.000000 2.824 153.5238
4750.000000 2.644 153.5139
4820.000000 2.467 153.5605
4870.000000 2.344 153.6289
4940.000000 2.175 153.7628
5000.000000 2.033 153.9119
5080.000000 1.849 154.1606
5150.000000 1.693 154.4160
5220.000000 1.542 154.7154
5300.000000 1.376 155.1029
5380.000000 1.214 155.5223
5450.000000 1.077 155.9181
5520.000000 0.945 156.3467
5600.000000 0.799 156.8826
5700.000000 0.624 157.6073
5800.000000 0.458 158.3871
5900.000000 0.303 159.2319
6000.000000 0.165 160.1446
6080.000000 0.065 160.9231
6150.000000 -0.016 161.6370
6220.000000 -0.087 162.3776
6300.000000 -0.157 163.2712
6400.000000 -0.225 164.4699
6500.000000 -0.271 165.7120
6600.000000 -0.290 166.9582
6700.000000 -0.279 168.2257
6800.000000 -0.239 169.5420
6900.000000 -0.166 170.8509
7000.000000 -0.056 172.1142
7100.000000 0.094 173.3419
7200.000000 0.290 174.4966
7300.000000 0.531 175.5331
7400.000000 0.818 176.4037
7500.000000 1.159 177.0519
7620.000000 1.645 177.4460
7750.000000 2.265 177.2345
7880.000000 2.976 176.0524
8000.000000 3.695 173.7551
8120.000000 4.433 169.9810
8250.000000 5.167 163.8732
8380.000000 5.691 155.5450
8500.000000 5.863 146.2797
8620.000000 5.661 136.4445
8750.000000 5.026 126.4943
8850.000000 4.303 120.0059
9000.000000 2.986 112.5394
9120.000000 1.845 108.3674
9250.000000 0.603 105.3153
9380.000000 -0.607 103.4221
9500.000000 -1.686 102.4522
9620.000000 -2.732 102.0883
9750.000000 -3.833 102.3033
9880.000000 -4.901 103.1247
10000.000000 -5.853 104.4053
10150.000000 -6.989 106.6830
10300.000000 -8.048 109.6341
10440.000000 -8.956 112.8927
10600.000000 -9.895 117.0136
10750.000000 -10.675 121.1342
10900.000000 -11.366 125.3796
11060.000000 -12.016 129.9898
11200.000000 -12.519 134.0658
11380.000000 -13.087 139.2532
11500.000000 -13.420 142.6598
11720.000000 -13.965 148.8897
11800.000000 -14.143 151.1785
12060.000000 -14.648 158.5935
12200.000000 -14.876 162.6206
12410.000000 -15.152 168.7677
12500.000000 -15.246 171.4120
12650.000000 -15.367 175.8344
12800.000000 -15.439 -179.6842
13150.000000 -15.429 -169.1077
13200.000000 -15.406 -167.5854
13400.000000 -15.253 -161.4658
13600.000000 -14.996 -155.3430
13800.000000 -14.629 -149.3320
14000.000000 -14.156 -143.4233
14300.000000 -13.276 -134.8434
14500.000000 -12.607 -129.6675
14750.000000 -11.688 -123.7688
15000.000000 -10.638 -117.8732
15250.000000 -9.417 -111.4494
15500.000000 -7.947 -105.8969
15750.000000 -6.206 -102.9390
16000.000000 -4.373 -103.8107
16250.000000 -2.934 -109.8701
16500.000000 -2.499 -121.0184
16750.000000 -3.336 -132.0132
17000.000000 -5.142 -137.3990
17250.000000 -7.347 -136.6218
17500.000000 -9.512 -131.8176
17750.000000 -11.467 -125.1178
18000.000000 -13.227 -118.5114
18250.000000 -14.859 -113.2745
18500.000000 -16.403 -108.7757
18750.000000 -17.889 -104.4845
19000.000000 -19.342 -100.8893
19250.000000 -20.770 -98.4344
19500.000000 -22.171 -96.3962
19750.000000 -23.526 -94.0591
20000.000000 -24.813 -91.2012
20300.000000 -26.142 -87.5766
