* REW测量的测量数据V5.20.13
* 来源: 麦克风 (Realtek High Definition Audio, MICROPHONE (主音), L, volume: no control
* 格式: 512k 对数扫频正弦, 1 扫频 at 0.0 dBFS 没有时间参考
* 日期: 2024-10-7 12:43:22
* REW 设置:
* C计权补偿: 关
*  目标电平: 75.0 dB
* 注释: ; 
* 测量: Truthear ZeroRed Narrow Tips
* 平滑: 1/24 倍频程
* 频率步进: 1/48 倍频程
* 起始频率: 20.300 Hz
*
* 频率(Hz) SPL(dB) 相位(角度)
20.299999 4.475 -159.7416
20.600000 4.486 -160.0516
20.900000 4.506 -160.5954
21.200001 4.522 -161.0846
21.400000 4.530 -161.3800
21.799999 4.541 -161.9398
22.000000 4.546 -162.2213
22.400000 4.550 -162.8033
22.700001 4.548 -163.2620
23.000000 4.541 -163.7376
23.299999 4.528 -164.2215
23.600000 4.513 -164.7094
24.000000 4.490 -165.3608
24.299999 4.473 -165.8476
24.700001 4.452 -166.4951
25.000000 4.439 -166.9818
25.400000 4.424 -167.6265
25.799999 4.411 -168.2453
26.200001 4.401 -168.8254
26.500000 4.398 -169.2446
26.900000 4.398 -169.8073
27.200001 4.398 -170.2451
27.600000 4.391 -170.8447
28.000000 4.374 -171.4261
28.500000 4.346 -172.0762
29.000000 4.324 -172.6641
29.500000 4.313 -173.2790
30.000000 4.303 -173.9633
30.400000 4.288 -174.5155
30.700001 4.273 -174.8964
31.100000 4.253 -175.3381
31.500000 4.239 -175.7246
32.000000 4.229 -176.2063
32.500000 4.216 -176.7444
33.000000 4.191 -177.3104
33.500000 4.154 -177.8430
34.000000 4.120 -178.3341
34.500000 4.093 -178.8321
35.000000 4.071 -179.3662
35.500000 4.048 -179.9113
36.000000 4.023 179.5740
36.500000 3.998 179.0999
37.000000 3.973 178.6514
37.500000 3.946 178.2210
38.200001 3.907 177.6511
38.700001 3.883 177.2491
39.500000 3.850 176.5648
40.000000 3.828 176.1298
40.599998 3.801 175.6343
41.200001 3.774 175.1565
41.799999 3.744 174.6689
42.500000 3.696 174.1063
43.099998 3.649 173.6704
43.700001 3.609 173.2762
44.400002 3.574 172.8239
45.000000 3.549 172.4142
45.500000 3.525 172.0634
46.200001 3.481 171.5952
46.799999 3.434 171.2398
47.500000 3.376 170.8587
48.200001 3.322 170.4698
48.700001 3.288 170.1786
49.400002 3.250 169.7537
50.000000 3.224 169.3734
50.799999 3.187 168.8821
51.500000 3.147 168.5223
52.200001 3.105 168.2050
53.000000 3.050 167.8052
53.799999 2.987 167.3585
54.500000 2.932 166.9662
55.200001 2.883 166.5816
56.000000 2.832 166.1712
57.000000 2.772 165.7256
58.000000 2.710 165.2964
59.000000 2.639 164.8749
60.000000 2.566 164.4863
60.799999 2.506 164.1942
61.500000 2.454 163.9484
62.200001 2.403 163.6995
63.000000 2.346 163.3929
64.000000 2.279 162.9830
65.000000 2.214 162.6139
66.000000 2.154 162.3158
67.000000 2.095 162.0111
68.000000 2.025 161.6831
69.000000 1.951 161.3746
70.000000 1.883 161.0709
71.000000 1.821 160.7451
72.000000 1.757 160.4216
73.000000 1.687 160.1755
74.000000 1.619 160.0204
75.000000 1.552 159.8776
76.199997 1.468 159.6497
77.500000 1.372 159.3835
78.800003 1.285 159.1312
80.000000 1.205 158.8824
81.199997 1.121 158.6503
82.500000 1.029 158.4432
83.800003 0.944 158.2807
85.000000 0.872 158.1100
86.199997 0.793 157.9247
87.500000 0.699 157.7845
88.500000 0.630 157.7048
90.000000 0.537 157.5317
91.199997 0.463 157.3873
92.500000 0.378 157.2667
93.800003 0.284 157.1692
95.000000 0.197 157.1110
96.199997 0.118 157.0798
97.500000 0.037 157.0433
98.800003 -0.049 157.0129
100.000000 -0.126 156.9943
101.500000 -0.215 156.9690
103.000000 -0.308 156.9595
104.400002 -0.399 156.9621
106.000000 -0.499 157.0487
107.500000 -0.588 157.1797
109.000000 -0.679 157.2763
110.599998 -0.774 157.3804
112.000000 -0.858 157.4930
113.800003 -0.959 157.6531
115.000000 -1.017 157.7609
117.199997 -1.129 157.9330
118.000000 -1.167 157.9716
120.599998 -1.300 158.2208
122.000000 -1.395 158.5233
124.099998 -1.530 158.8758
125.000000 -1.577 159.0054
126.500000 -1.651 159.2640
128.000000 -1.727 159.5525
131.500000 -1.897 160.1052
132.000000 -1.922 160.1984
134.000000 -2.015 160.6608
136.000000 -2.096 161.1603
138.000000 -2.177 161.6369
140.000000 -2.257 162.0643
143.000000 -2.379 162.6075
145.000000 -2.458 163.1210
147.500000 -2.545 163.8367
150.000000 -2.609 164.4472
152.500000 -2.668 165.0258
155.000000 -2.740 165.7383
157.500000 -2.802 166.5394
160.000000 -2.864 167.2325
162.500000 -2.930 167.9737
165.000000 -2.997 168.7262
167.500000 -3.035 169.3195
170.000000 -3.053 169.9140
172.500000 -3.081 170.6064
175.000000 -3.105 171.2904
177.500000 -3.129 171.9275
180.000000 -3.147 172.5425
182.500000 -3.157 173.2007
185.000000 -3.167 173.8289
187.500000 -3.176 174.4058
190.000000 -3.170 175.0507
192.500000 -3.156 175.7328
195.000000 -3.153 176.3233
197.500000 -3.152 176.8482
200.000000 -3.137 177.3407
203.000000 -3.124 177.9128
206.000000 -3.110 178.5078
209.000000 -3.078 179.0823
212.000000 -3.046 179.6368
214.000000 -3.029 179.9867
218.000000 -2.995 -179.3887
220.000000 -2.976 -179.0751
224.000000 -2.930 -178.4172
227.000000 -2.893 -177.9163
230.000000 -2.853 -177.4236
233.000000 -2.816 -177.0125
236.000000 -2.782 -176.6881
240.000000 -2.738 -176.2219
243.000000 -2.698 -175.8431
247.000000 -2.649 -175.3981
250.000000 -2.614 -175.1121
254.000000 -2.562 -174.7002
258.000000 -2.514 -174.3443
262.000000 -2.461 -174.0782
265.000000 -2.425 -173.8773
269.000000 -2.377 -173.6120
272.000000 -2.342 -173.4222
276.000000 -2.296 -173.1757
280.000000 -2.241 -172.9471
285.000000 -2.175 -172.6605
290.000000 -2.115 -172.4123
295.000000 -2.053 -172.2099
300.000000 -2.000 -172.0002
304.000000 -1.959 -171.8675
307.000000 -1.928 -171.7731
311.000000 -1.890 -171.6520
315.000000 -1.855 -171.5504
320.000000 -1.809 -171.3980
325.000000 -1.770 -171.2362
330.000000 -1.733 -171.0570
335.000000 -1.693 -170.9169
340.000000 -1.651 -170.8862
345.000000 -1.611 -170.9081
350.000000 -1.577 -170.8958
355.000000 -1.543 -170.8321
360.000000 -1.506 -170.7612
365.000000 -1.473 -170.6511
370.000000 -1.442 -170.5643
375.000000 -1.413 -170.5182
382.000000 -1.373 -170.4522
387.000000 -1.347 -170.4010
395.000000 -1.316 -170.3442
400.000000 -1.297 -170.3220
406.000000 -1.270 -170.2887
412.000000 -1.244 -170.2504
418.000000 -1.219 -170.2038
425.000000 -1.195 -170.1614
431.000000 -1.178 -170.1589
437.000000 -1.162 -170.0961
444.000000 -1.147 -170.0140
450.000000 -1.134 -169.9827
455.000000 -1.123 -169.9480
462.000000 -1.103 -169.8951
468.000000 -1.086 -169.8273
475.000000 -1.067 -169.7470
482.000000 -1.053 -169.7047
487.000000 -1.044 -169.6708
494.000000 -1.034 -169.5920
500.000000 -1.026 -169.5219
508.000000 -1.012 -169.4367
515.000000 -0.998 -169.3721
522.000000 -0.986 -169.2985
530.000000 -0.971 -169.1767
538.000000 -0.960 -169.0614
545.000000 -0.951 -168.9892
552.000000 -0.944 -168.8887
560.000000 -0.933 -168.7643
570.000000 -0.924 -168.6280
580.000000 -0.918 -168.5083
590.000000 -0.908 -168.3611
600.000000 -0.895 -168.2053
608.000000 -0.888 -168.0481
615.000000 -0.885 -167.9213
622.000000 -0.880 -167.8097
630.000000 -0.871 -167.6738
640.000000 -0.858 -167.4787
650.000000 -0.851 -167.2664
660.000000 -0.845 -167.0384
670.000000 -0.839 -166.7995
680.000000 -0.832 -166.5800
690.000000 -0.817 -166.3563
700.000000 -0.805 -166.0746
710.000000 -0.795 -165.8233
720.000000 -0.782 -165.5723
730.000000 -0.769 -165.3099
740.000000 -0.754 -165.0309
750.000000 -0.735 -164.7449
762.000000 -0.713 -164.4099
775.000000 -0.691 -164.0554
788.000000 -0.669 -163.6664
800.000000 -0.643 -163.2846
812.000000 -0.611 -162.9146
825.000000 -0.576 -162.5096
838.000000 -0.545 -162.1118
850.000000 -0.513 -161.7462
862.000000 -0.472 -161.3842
875.000000 -0.423 -161.0142
885.000000 -0.386 -160.7297
900.000000 -0.326 -160.3471
912.000000 -0.278 -160.0779
925.000000 -0.230 -159.7849
938.000000 -0.183 -159.4806
950.000000 -0.137 -159.2149
962.000000 -0.085 -158.9687
975.000000 -0.027 -158.7085
988.000000 0.029 -158.4522
1000.000000 0.080 -158.2254
1015.000000 0.145 -157.9565
1030.000000 0.215 -157.7137
1044.000000 0.278 -157.4881
1060.000000 0.352 -157.2352
1075.000000 0.425 -157.0431
1090.000000 0.500 -156.8816
1106.000000 0.576 -156.7193
1120.000000 0.641 -156.5725
1138.000000 0.724 -156.4087
1150.000000 0.780 -156.3177
1172.000000 0.881 -156.1617
1180.000000 0.918 -156.1121
1206.000000 1.030 -155.9813
1220.000000 1.089 -155.9148
1241.000000 1.178 -155.7737
1250.000000 1.216 -155.7070
1265.000000 1.279 -155.6009
1280.000000 1.341 -155.4957
1315.000000 1.483 -155.1984
1320.000000 1.503 -155.1536
1340.000000 1.585 -154.9685
1360.000000 1.671 -154.7603
1380.000000 1.758 -154.5381
1400.000000 1.852 -154.3189
1430.000000 1.997 -154.0110
1450.000000 2.099 -153.8252
1475.000000 2.237 -153.6527
1500.000000 2.371 -153.5658
1525.000000 2.499 -153.5172
1550.000000 2.623 -153.5168
1575.000000 2.744 -153.5862
1600.000000 2.858 -153.6968
1625.000000 2.961 -153.8282
1650.000000 3.059 -153.9768
1675.000000 3.153 -154.1168
1700.000000 3.241 -154.2401
1725.000000 3.328 -154.3656
1750.000000 3.413 -154.4877
1775.000000 3.496 -154.6175
1800.000000 3.579 -154.7602
1825.000000 3.662 -154.8748
1850.000000 3.748 -154.9785
1875.000000 3.835 -155.1030
1900.000000 3.924 -155.2336
1925.000000 4.015 -155.3570
1950.000000 4.110 -155.4827
1975.000000 4.208 -155.6173
2000.000000 4.306 -155.7684
2030.000000 4.423 -155.9720
2060.000000 4.545 -156.1918
2090.000000 4.670 -156.4300
2120.000000 4.795 -156.6994
2140.000000 4.879 -156.8944
2180.000000 5.049 -157.3197
2200.000000 5.133 -157.5494
2240.000000 5.302 -158.0474
2270.000000 5.431 -158.4591
2300.000000 5.557 -158.9103
2330.000000 5.682 -159.3951
2360.000000 5.805 -159.9185
2400.000000 5.967 -160.6734
2430.000000 6.085 -161.2687
2470.000000 6.239 -162.1190
2500.000000 6.351 -162.8103
2540.000000 6.493 -163.7965
2580.000000 6.626 -164.8410
2620.000000 6.750 -165.9362
2650.000000 6.838 -166.7963
2690.000000 6.947 -167.9908
2720.000000 7.022 -168.9122
2760.000000 7.112 -170.1689
2800.000000 7.193 -171.4657
2850.000000 7.277 -173.1369
2900.000000 7.344 -174.8360
2950.000000 7.394 -176.5617
3000.000000 7.428 -178.3141
3040.000000 7.440 -179.7236
3070.000000 7.441 179.2268
3110.000000 7.433 177.8467
3150.000000 7.416 176.4985
3200.000000 7.379 174.8522
3250.000000 7.329 173.2413
3300.000000 7.269 171.6799
3350.000000 7.200 170.1731
3400.000000 7.120 168.7221
3450.000000 7.031 167.3296
3500.000000 6.934 166.0031
3550.000000 6.831 164.7425
3600.000000 6.721 163.5490
3650.000000 6.606 162.4090
3700.000000 6.485 161.3193
3750.000000 6.361 160.2901
3820.000000 6.178 158.9526
3870.000000 6.043 158.0644
3950.000000 5.823 156.7548
4000.000000 5.682 156.0162
4060.000000 5.509 155.2068
4120.000000 5.336 154.4572
4180.000000 5.163 153.7583
4250.000000 4.963 153.0035
4310.000000 4.790 152.4114
4370.000000 4.614 151.8689
4440.000000 4.409 151.2881
4500.000000 4.232 150.8367
4550.000000 4.082 150.5047
4620.000000 3.872 150.0961
4680.000000 3.693 149.7794
4750.000000 3.484 149.4464
4820.000000 3.272 149.1833
4870.000000 3.120 149.0324
4940.000000 2.908 148.8612
5000.000000 2.725 148.7613
5080.000000 2.480 148.6940
5150.000000 2.268 148.6817
5220.000000 2.057 148.7283
5300.000000 1.813 148.8577
5380.000000 1.570 149.0499
5450.000000 1.359 149.2753
5520.000000 1.148 149.5543
5600.000000 0.907 149.9380
5700.000000 0.608 150.5342
5800.000000 0.314 151.2584
5900.000000 0.030 152.0903
6000.000000 -0.242 153.0428
6080.000000 -0.454 153.9012
6150.000000 -0.635 154.7136
6220.000000 -0.809 155.5751
6300.000000 -0.998 156.6351
6400.000000 -1.221 158.0910
6500.000000 -1.426 159.6481
6600.000000 -1.610 161.2704
6700.000000 -1.771 162.9866
6800.000000 -1.908 164.8095
6900.000000 -2.023 166.7029
7000.000000 -2.113 168.6404
7100.000000 -2.173 170.6317
7200.000000 -2.198 172.6754
7300.000000 -2.196 174.7480
7400.000000 -2.165 176.8255
7500.000000 -2.101 178.8978
7620.000000 -1.970 -178.6138
7750.000000 -1.765 -175.9616
7880.000000 -1.490 -173.4536
8000.000000 -1.170 -171.3786
8120.000000 -0.788 -169.5661
8250.000000 -0.304 -167.9452
8380.000000 0.253 -166.7430
8500.000000 0.839 -166.1496
8620.000000 1.500 -166.2158
8750.000000 2.290 -167.2054
8850.000000 2.938 -168.7889
9000.000000 3.932 -172.9287
9120.000000 4.679 -178.1281
9250.000000 5.324 174.1544
9380.000000 5.663 164.4913
9500.000000 5.604 154.5810
9620.000000 5.152 144.8370
9750.000000 4.264 135.7078
9880.000000 3.080 128.8519
10000.000000 1.849 124.6712
10150.000000 0.275 122.0009
10300.000000 -1.218 121.5609
10440.000000 -2.482 122.5873
10600.000000 -3.752 124.8705
10750.000000 -4.779 127.6793
10900.000000 -5.665 130.8702
11060.000000 -6.480 134.5305
11200.000000 -7.099 137.8232
11380.000000 -7.788 142.0831
11500.000000 -8.192 144.9395
11720.000000 -8.845 150.1757
11800.000000 -9.060 152.0883
12060.000000 -9.690 158.4831
12200.000000 -9.983 162.1793
12410.000000 -10.330 168.1059
12500.000000 -10.435 170.7545
12650.000000 -10.547 175.2427
12800.000000 -10.579 179.7650
13150.000000 -10.349 -169.6679
13200.000000 -10.281 -168.1621
13400.000000 -9.915 -162.2130
13600.000000 -9.384 -156.5100
13800.000000 -8.668 -151.1705
14000.000000 -7.756 -146.2638
14300.000000 -5.999 -140.2927
14500.000000 -4.546 -138.2412
14750.000000 -2.457 -139.5432
15000.000000 -0.457 -147.3312
15250.000000 0.613 -162.5157
15500.000000 0.089 179.9034
15750.000000 -1.852 168.9208
16000.000000 -4.391 167.6663
16250.000000 -6.836 173.9827
16500.000000 -8.931 -175.7241
16750.000000 -10.660 -163.7460
17000.000000 -12.092 -150.9550
17250.000000 -13.305 -137.7117
17500.000000 -14.323 -124.3440
17750.000000 -15.159 -111.3601
18000.000000 -15.841 -99.8301
18250.000000 -16.399 -90.6460
18500.000000 -16.843 -83.1741
18750.000000 -17.175 -76.9105
19000.000000 -17.421 -72.5221
19250.000000 -17.612 -70.6165
19500.000000 -17.784 -70.6128
19750.000000 -17.970 -71.7488
20000.000000 -18.181 -73.6516
20300.000000 -18.459 -76.2001
